title: 1488_001_ment, recorded: 14.10.19 14.59.33, timestamp started:2017-11-21T16:17:43.558438-08:00            , sampling:128, subject:, labels:COUNTER INTERPOLATED F3 FC5 AF3 F7 T7 P7 O1 O2 P8 T8 F8 AF4 FC6 F4 RAW_CQ GYROX GYROY MARKER MARKER_HARDWARE SYNC TIME_STAMP_s TIME_STAMP_ms CQ_AF3 CQ_F7 CQ_F3 CQ_FC5 CQ_T7 CQ_P7 CQ_O1 CQ_O2 CQ_P8 CQ_T8 CQ_FC6 CQ_F4 CQ_F8 CQ_AF4 CQ_CMS CQ_DRL, , chan:40, samples:440, units:emotiv
19,16,4149.48717928,4128.84615357,4219.48717942,4088.46153812,4139.48717928,4086.53846119,4129.35897408,3999.35897381,4171.28205115,4095.64102530,4287.56410264,4170.25641012,4171.53846140,4099.10256376,0,0
20,16,4145.25641005,4122.69230742,4200.12820499,4085.64102530,4130.64102537,4080.51282017,4107.82051255,3987.17948663,4157.17948697,4088.46153812,4309.74358989,4152.30769210,4162.43589723,4098.71794837,0,0
21,16,4136.92307672,4132.69230742,4204.35897429,4096.02564068,4134.48717921,4083.97435863,4106.02564075,3985.12820458,4161.02564082,4096.15384581,4307.69230784,4156.41025621,4165.89743569,4096.15384581,0,0
22,16,4140.25641005,4128.33333306,4207.43589737,4096.15384581,4136.79487159,4087.30769196,4118.20512793,3993.71794817,4169.87179474,4101.53846119,4306.02564117,4158.71794851,4168.71794858,4097.30769196,0,0
23,16,4146.79487159,4119.48717921,4207.82051275,4093.07692273,4129.23076896,4088.71794837,4120.12820485,3991.66666611,4163.58974339,4093.97435863,4307.05128219,4153.33333313,4166.02564082,4102.56410229,0,0
24,16,4145.64102544,4141.02564082,4221.41025634,4109.48717921,4128.71794844,4089.87179453,4114.35897408,3987.05128150,4168.97435884,4100.76923043,4281.28205136,4173.33333320,4181.79487166,4102.43589709,0,0
25,16,4153.58974339,4160.38461518,4215.25641019,4112.43589716,4117.82051255,4094.87179453,4121.02564075,3999.23076868,4173.97435884,4100.38461504,4311.41025655,4174.10256397,4185.38461525,4120.12820485,0,0
26,16,4148.58974339,4167.17948697,4207.43589737,4102.56410229,4120.25640998,4088.58974325,4120.76923050,3996.66666611,4178.20512807,4107.56410229,4307.43589758,4166.15384595,4177.17948704,4113.07692280,0,0
27,16,4136.28205108,4165.64102544,4200.25641012,4102.56410229,4133.07692280,4080.64102530,4117.43589716,3987.56410201,4173.97435884,4110.38461511,4298.84615392,4157.05128185,4166.66666646,4092.69230735,0,0
28,16,4141.41025621,4160.51282031,4198.20512807,4105.89743562,4127.82051255,4084.74358940,4118.07692280,3985.25640970,4158.97435877,4093.71794837,4312.56410271,4145.89743569,4160.76923056,4093.07692273,0,0
29,16,4147.69230749,4165.89743569,4206.53846147,4110.76923050,4125.51282024,4088.33333299,4116.79487152,3986.15384560,4166.02564082,4102.69230742,4287.94871802,4156.92307672,4162.30769210,4093.20512786,0,0
30,16,4143.97435877,4166.28205108,4189.87179474,4109.10256383,4121.28205101,4093.20512786,4127.69230742,3988.07692252,4169.74358961,4105.89743562,4309.74358989,4147.05128185,4144.10256390,4094.10256376,0,0
31,16,4137.56410236,4168.20512807,4189.48717935,4105.89743562,4119.87179460,4092.17948684,4128.58974332,3969.35897374,4164.48717928,4097.82051248,4316.92307707,4142.69230749,4148.33333313,4083.84615350,0,0
32,16,4142.17948697,4166.92307672,4195.89743576,4104.23076896,4121.02564075,4087.17948684,4111.15384588,3953.33333271,4157.30769210,4101.15384581,4315.00000014,4143.20512800,4163.33333313,4082.82051248,0,0
33,16,4138.20512800,4167.56410236,4173.33333320,4094.87179453,4109.23076896,4085.25640991,4102.82051255,3949.87179425,4141.92307672,4089.48717914,4320.64102578,4114.23076896,4139.23076903,4089.61538427,0,0
34,16,4143.46153826,4182.30769217,4182.43589730,4102.17948684,4115.76923050,4087.17948684,4112.17948691,3949.99999938,4152.30769210,4094.23076889,4296.41025648,4132.94871767,4138.71794851,4094.61538427,0,0
35,16,4177.94871781,4198.84615371,4211.66666660,4118.20512793,4137.82051262,4098.20512786,4125.64102537,3961.92307630,4153.71794851,4107.30769203,4336.02564124,4174.99999986,4138.07692287,4128.97435870,0,0
36,16,4170.51282038,4243.33333334,4211.15384609,4103.20512793,4142.17948697,4097.69230735,4115.51282024,3955.51281989,4133.46153819,4107.56410229,4347.43589765,4178.20512807,4123.33333306,4131.41025614,0,0
37,16,4134.23076896,4283.58974366,4186.41025628,4065.89743548,4123.84615357,4087.05128171,4101.53846119,3937.43589674,4139.87179467,4117.56410229,4339.48717970,4167.43589723,4150.64102544,4106.02564075,0,0
38,16,4135.89743569,4273.58974366,4184.61538448,4041.66666625,4108.71794844,4088.20512786,4106.53846126,3937.30769162,4164.61538441,4133.46153819,4368.71794900,4173.84615371,4200.38461525,4112.30769203,0,0
39,16,4140.64102544,4266.66666674,4200.38461525,4036.66666618,4110.38461511,4090.51282017,4108.97435870,3943.07692246,4177.94871781,4155.64102544,4351.66666688,4192.56410243,4231.66666660,4112.94871767,0,0
40,16,4130.64102537,4263.20512821,4181.66666653,4020.25640977,4106.28205101,4090.89743555,4111.28205101,3942.05128143,4175.64102551,4191.53846140,4369.87179515,4188.20512807,4197.30769217,4112.69230742,0,0
41,16,4146.28205108,4260.00000000,4176.92307679,4003.20512765,4117.69230742,4097.43589709,4123.84615357,3939.99999938,4185.12820499,4232.05128199,4382.69230797,4204.48717942,4170.12820499,4131.53846126,0,0
42,16,4181.41025628,4274.48717956,4191.15384602,4004.74358926,4129.99999973,4108.84615357,4143.33333313,3961.02564040,4198.46153833,4217.94871788,4372.69230797,4226.53846147,4194.87179474,4155.12820492,0,0
43,16,4170.89743576,4264.35897436,4179.74358961,3994.10256355,4114.10256383,4109.10256383,4141.79487159,3968.97435835,4187.05128192,4199.48717935,4384.74359003,4202.94871788,4187.43589730,4148.84615364,0,0
44,16,4127.17948691,4241.15384616,4167.17948697,3973.33333278,4112.94871767,4093.20512786,4117.69230742,3935.38461469,4168.46153833,4285.00000007,4352.43589765,4192.69230756,4158.97435877,4109.23076896,0,0
45,16,4135.25640998,4244.23076923,4160.76923056,3969.99999938,4117.69230742,4088.84615350,4118.20512793,3921.79487110,4153.97435877,4341.41025662,4360.12820534,4195.89743576,4131.41025614,4118.46153819,0,0
46,16,4168.97435884,4257.69230770,4171.66666653,3983.20512765,4114.61538434,4094.48717914,4130.51282024,3932.30769162,4158.97435877,4325.51282066,4368.33333362,4195.38461525,4084.87179453,4159.61538441,0,0
47,16,4166.41025621,4256.53846154,4174.61538448,3985.25640970,4119.74358947,4088.20512786,4121.02564075,3925.64102495,4167.82051262,4409.48717984,4353.97435919,4194.10256397,4101.92307658,4147.56410236,0,0
48,16,4153.71794851,4247.30769231,4158.84615364,3972.43589688,4123.46153819,4082.30769196,4112.30769203,3905.64102495,4147.17948697,4565.12820583,4378.46153874,4186.53846140,4175.51282038,4117.05128178,0,0
49,16,4148.33333313,4256.79487180,4164.48717928,3975.25640970,4124.61538434,4083.71794837,4113.33333306,3896.28205052,4151.92307672,4671.92307783,4346.28205149,4196.79487166,4184.35897422,4113.46153819,0,0
50,16,4148.71794851,4251.02564103,4157.82051262,3970.51281989,4113.46153819,4088.97435863,4114.10256383,3902.56410180,4180.25641012,4774.23077035,4346.66666688,4187.82051269,4187.30769217,4111.66666639,0,0
51,16,4144.87179467,4229.35897429,4146.79487159,3955.76923015,4117.43589716,4089.74358940,4112.69230742,3896.02564027,4195.12820499,4915.25641165,4378.20512849,4178.33333320,4270.25641033,4078.71794837,0,0
52,16,4139.87179467,4235.64102564,4150.89743569,3958.97435835,4140.25641005,4087.30769196,4120.89743562,3897.17948642,4197.69230756,4980.12820666,4347.17948739,4191.79487166,4273.97435905,4085.64102530,0,0
53,16,4143.46153826,4255.00000000,4147.82051262,3969.48717887,4134.10256383,4089.10256376,4134.23076896,3919.74358905,4185.76923063,4989.35897596,4340.38461560,4176.92307679,4204.61538455,4114.10256383,0,0
54,16,4132.56410229,4252.43589744,4146.28205108,3973.07692252,4122.56410229,4078.58974325,4120.38461511,3911.66666598,4178.58974345,5060.38461713,4327.56410271,4170.76923063,4277.17948725,4074.35897402,0,0
55,16,4133.84615357,4235.76923077,4142.82051262,3969.74358912,4126.79487152,4077.69230735,4116.28205101,3901.15384539,4175.25641012,5113.07692489,4335.76923098,4180.51282038,4354.74358996,4075.64102530,0,0
56,16,4145.64102544,4250.25641026,4153.33333313,3975.51281996,4135.89743569,4091.79487145,4130.25640998,3912.43589674,4174.48717935,5130.89743778,4346.53846175,4187.17948704,4309.74358989,4112.43589716,0,0
57,16,4141.79487159,4268.33333341,4164.61538441,3982.56410201,4133.71794844,4091.53846119,4126.53846126,3911.66666598,4173.84615371,5177.82051477,4323.97435912,4196.92307679,4321.02564117,4083.58974325,0,0
58,16,4134.87179460,4249.87179488,4153.71794851,3978.20512765,4121.92307665,4090.76923043,4125.51282024,3903.20512744,4163.84615364,5212.30769433,4334.23076944,4190.89743576,4380.38461567,4057.30769189,0,0
59,16,4133.71794844,4256.79487180,4159.10256390,3985.64102509,4131.53846126,4093.97435863,4134.61538434,3914.99999931,4162.43589723,5203.20513022,4301.66666681,4199.35897422,4337.30769252,4083.71794837,0,0
60,16,4144.99999980,4271.79487187,4155.38461518,3988.33333278,4137.82051262,4093.33333299,4140.25641005,3940.64102502,4156.41025621,5192.05128407,4290.64102571,4200.38461525,4270.51282059,4113.46153819,0,0
61,16,4142.56410236,4258.84615385,4143.71794851,3978.33333278,4130.51282024,4088.33333299,4130.51282024,3939.99999938,4148.46153826,5212.30769433,4310.00000014,4191.92307679,4323.84615399,4092.94871761,0,0
62,16,4125.25640998,4257.56410257,4153.58974339,3984.35897381,4136.66666646,4077.17948684,4115.51282024,3930.51281982,4151.66666646,5251.02564311,4288.20512828,4200.76923063,4378.07692336,4067.82051241,0,0
63,16,4135.25640998,4266.79487187,4164.35897415,3999.23076868,4142.82051262,4079.35897402,4124.99999973,3947.82051220,4149.74358954,5271.79487395,4298.97435905,4206.53846147,4364.35897457,4087.43589709,0,0
64,16,4139.87179467,4270.12820520,4169.10256397,4000.25640970,4139.35897415,4084.99999966,4126.92307665,3959.10256348,4156.28205108,5282.82051498,4275.25641033,4213.97435891,4379.61538490,4082.17948684,184,13
65,16,4131.02564075,4265.12820513,4159.99999980,3991.28205073,4123.07692280,4078.97435863,4116.92307665,3975.12820458,4161.02564082,5270.89743806,4261.53846154,4203.20512814,4372.17948746,4072.43589709,255,13
66,16,4143.07692287,4263.84615385,4158.20512800,3990.89743535,4113.84615357,4072.30769196,4122.94871767,4005.12820465,4141.28205108,5222.43589952,4268.20512828,4192.17948704,4333.84615406,4104.35897408,175,13
67,16,4146.66666646,4262.30769231,4164.74358954,4000.38461483,4131.92307665,4071.02564068,4123.33333306,4011.79487131,4128.97435870,5233.58974568,4244.48717949,4204.87179481,4358.33333355,4101.66666632,132,13
68,16,4139.99999980,4256.66666667,4164.23076903,4011.41025593,4144.48717928,4077.43589709,4124.23076896,4025.76923029,4131.41025614,5238.84615593,4266.92307700,4197.94871781,4383.97435926,4084.10256376,234,13
69,16,4142.94871774,4271.66666674,4179.61538448,4020.89743541,4141.15384595,4079.74358940,4136.15384595,4053.71794830,4146.41025621,5197.82051484,4241.41025641,4199.99999986,4392.43589772,4087.94871761,120,12
70,16,4146.79487159,4274.87179495,4178.33333320,4017.94871747,4134.35897408,4083.46153812,4143.07692287,4066.79487138,4141.53846133,5226.02564311,4218.07692301,4208.46153840,4380.89743618,4096.41025607,13,13
71,16,4139.99999980,4255.51282052,4157.69230749,4007.43589695,4127.56410229,4087.43589709,4134.99999973,4066.66666625,4110.38461511,5239.87179696,4239.23076923,4189.99999986,4313.97435912,4095.38461504,123,10
72,16,4135.51282031,4260.51282052,4163.58974339,4009.48717900,4132.05128178,4082.30769196,4131.66666639,4076.02564068,4125.38461511,5196.66666869,4225.89743583,4188.33333320,4354.10256431,4082.30769196,58,13
73,16,4147.69230749,4264.74358975,4173.33333320,4015.25640977,4138.07692287,4088.07692273,4150.64102544,4108.58974332,4149.35897415,5175.00000195,4244.61538462,4199.10256397,4466.41025690,4087.30769196,150,13
74,16,4143.20512800,4254.35897436,4177.17948704,4016.02564054,4144.87179467,4088.46153812,4150.38461518,4124.87179460,4131.79487152,5160.64102759,4218.33333327,4202.43589737,4392.17948746,4087.94871761,217,3
75,16,4126.53846126,4247.82051282,4168.20512807,4015.25640977,4138.33333313,4074.61538427,4135.12820485,4124.35897408,4116.79487152,5143.58974547,4198.84615371,4187.69230756,4276.53846161,4075.64102530,208,13
76,16,4124.23076896,4250.38461539,4163.58974339,4019.61538413,4129.87179460,4077.30769196,4142.69230749,4129.99999973,4124.87179460,5174.48718144,4236.02564103,4183.84615371,4386.66666695,4067.69230728,138,13
77,16,4133.84615357,4254.48717949,4178.97435884,4016.53846106,4129.99999973,4084.35897402,4142.56410236,4146.92307672,4135.64102544,5189.10256612,4219.48717942,4209.23076917,4502.30769287,4061.02564061,69,13
78,16,4147.69230749,4244.10256411,4178.46153833,4012.82051234,4119.48717921,4080.76923043,4132.56410229,4172.82051269,4128.33333306,5116.53846335,4223.71794865,4198.33333320,4423.46153881,4074.61538427,217,3
79,16,4170.51282038,4266.02564103,4207.94871788,4056.92307651,4144.23076903,4090.51282017,4156.66666646,4204.48717942,4139.35897415,5105.12820694,4218.20512814,4219.99999993,4365.76923105,4122.30769203,208,13
80,16,4185.64102551,4278.97435905,4216.66666660,4072.56410222,4174.35897422,4105.64102537,4185.89743576,4239.61538462,4152.94871774,5149.87179675,4208.20512814,4254.23076923,4435.12820555,4151.28205108,138,13
81,16,4142.30769210,4229.23076917,4150.64102544,4017.43589695,4149.35897415,4088.46153812,4153.20512800,4222.82051275,4116.41025614,5123.33333521,4229.61538455,4194.48717935,4455.51282093,4095.38461504,69,13
82,16,4087.82051248,4218.97435891,4137.69230749,4028.33333285,4137.17948697,4066.15384574,4116.02564075,4185.64102551,4094.48717914,5098.46154027,4206.79487173,4156.66666646,4425.89743625,4023.84615336,217,3
83,16,4111.02564075,4252.05128206,4179.10256397,4093.20512786,4146.79487159,4085.89743555,4143.97435877,4212.94871788,4104.35897408,5080.76923251,4204.23076917,4178.07692294,4370.76923105,4052.17948677,208,13
84,16,4137.56410236,4254.74358975,4191.66666653,4100.38461504,4143.33333313,4094.35897402,4150.51282031,4241.79487180,4099.61538427,5024.10256577,4176.66666653,4180.12820499,4315.89743604,4084.10256376,138,13
85,16,4112.56410229,4254.74358975,4191.28205115,4114.10256383,4145.64102544,4071.66666632,4117.17948691,4231.92307686,4081.92307658,5009.61538622,4148.97435877,4170.64102551,4367.30769259,4048.84615343,69,13
86,16,4122.94871767,4290.64102571,4215.25641019,4179.48717935,4157.05128185,4075.25640991,4134.61538434,4240.76923077,4084.48717914,5037.17948885,4184.35897422,4180.76923063,4445.51282093,4043.97435856,217,3
87,16,4147.94871774,4291.53846161,4218.07692301,4190.38461525,4156.66666646,4076.92307658,4150.51282031,4247.94871795,4093.07692273,5004.48718109,4158.84615364,4180.64102551,4383.84615413,4051.15384574,208,13
88,16,4145.89743569,4263.97435898,4198.58974345,4165.89743569,4154.87179467,4068.58974318,4138.46153826,4250.64102564,4070.89743555,4931.66666813,4144.74358954,4155.51282031,4285.64102571,4062.82051241,138,13
89,16,4150.76923056,4286.92307700,4226.28205122,4184.10256397,4168.46153833,4081.15384581,4146.28205108,4265.76923077,4076.02564068,4965.51282205,4145.12820492,4176.02564089,4374.74359003,4075.25640991,69,13
90,16,4159.99999980,4303.07692322,4243.07692308,4189.99999986,4169.23076910,4084.99999966,4154.74358954,4276.28205136,4097.30769196,5009.87179647,4132.94871767,4204.10256404,4436.92307734,4068.58974318,217,3
91,16,4150.25641005,4271.53846161,4212.56410250,4167.69230749,4156.28205108,4075.76923043,4150.76923056,4290.76923084,4079.99999966,4945.64102710,4157.17948697,4177.43589730,4348.58974380,4070.89743555,208,13
92,16,4140.64102544,4275.89743597,4216.66666660,4182.69230756,4166.28205108,4076.15384581,4153.84615364,4300.25641040,4079.35897402,4935.38461685,4139.99999980,4179.74358961,4371.15384644,4069.23076882,138,13
93,16,4153.84615364,4292.17948725,4228.58974352,4202.43589737,4167.30769210,4087.43589709,4161.41025621,4301.15384630,4087.69230735,4946.41025787,4145.89743569,4192.05128192,4394.48717977,4079.48717914,69,13
94,16,4139.48717928,4259.23076923,4209.61538455,4177.30769217,4159.23076903,4087.56410222,4140.25641005,4288.20512828,4083.33333299,4893.46153986,4146.15384595,4166.02564082,4360.25641047,4057.05128164,217,3
95,16,4119.10256383,4242.05128206,4198.71794858,4163.33333313,4167.56410236,4078.07692273,4124.48717921,4283.97435905,4092.30769196,4893.71795011,4116.66666639,4159.61538441,4380.12820541,4033.71794824,208,13
96,16,4142.17948697,4272.30769238,4208.46153840,4190.38461525,4171.28205115,4083.58974325,4152.43589723,4308.33333348,4103.46153819,4934.87179633,4154.87179467,4178.71794858,4371.53846182,4071.92307658,138,13
97,16,4155.64102544,4299.35897443,4234.23076923,4220.76923070,4188.84615371,4094.87179453,4163.97435877,4327.82051296,4117.43589716,4932.94871941,4161.53846133,4202.30769224,4364.61538483,4087.17948684,69,13
98,16,4172.05128192,4295.12820520,4247.17948718,4216.02564096,4196.66666653,4097.56410222,4165.51282031,4346.02564124,4123.33333306,4883.71795004,4157.43589723,4209.87179481,4421.15384651,4100.38461504,217,3
99,16,4187.05128192,4294.23076930,4240.00000000,4195.89743576,4176.53846140,4087.56410222,4176.28205115,4349.87179508,4116.28205101,4864.74359107,4146.92307672,4203.07692301,4426.53846189,4106.53846126,208,13
100,16,4170.89743576,4309.87179501,4227.94871788,4207.56410250,4191.15384602,4090.51282017,4173.33333320,4346.28205149,4125.12820485,4894.35897575,4126.66666639,4199.61538448,4405.76923112,4074.35897402,138,13
101,16,4153.07692287,4288.97435905,4207.82051275,4213.71794865,4219.23076917,4103.07692280,4159.99999980,4345.51282073,4124.35897408,4878.97436030,4163.97435877,4174.35897422,4406.53846189,4060.64102523,69,13
102,16,4139.87179467,4266.92307700,4204.35897429,4194.87179474,4215.76923070,4085.89743555,4138.33333313,4325.12820527,4101.41025607,4802.69230888,4144.35897415,4160.38461518,4383.58974387,4060.38461497,217,3
103,16,4145.64102544,4288.33333341,4215.12820506,4193.07692294,4207.05128199,4083.07692273,4141.79487159,4333.20512842,4095.25640991,4765.25641137,4136.92307672,4170.38461525,4391.02564131,4070.25640991,208,13
104,16,4175.89743576,4323.58974373,4244.87179488,4220.38461532,4232.43589737,4110.76923050,4169.99999986,4361.53846175,4113.97435870,4789.23077035,4152.82051262,4192.56410243,4420.64102599,4097.56410222,138,13
105,16,4167.56410236,4320.12820527,4245.51282052,4223.46153840,4252.17948718,4098.84615350,4158.71794851,4346.53846175,4110.12820485,4758.33333438,4114.10256383,4191.41025628,4375.00000028,4093.84615350,69,13
106,16,4127.17948691,4286.79487187,4198.58974345,4192.30769217,4244.74358975,4068.71794830,4127.17948691,4317.05128219,4075.64102530,4689.87179578,4130.25640998,4146.92307672,4348.58974380,4054.23076882,217,3
107,16,4152.05128185,4323.84615399,4231.28205122,4219.23076917,4283.71794879,4087.05128171,4154.10256390,4343.84615406,4108.84615357,4728.33333438,4142.82051262,4178.84615371,4398.71794907,4068.07692266,208,13
108,16,4207.56410250,4370.25641054,4279.61538469,4266.02564103,4354.23076944,4120.89743562,4190.51282038,4394.23076951,4158.46153826,4766.15384727,4142.94871774,4231.28205122,4401.28205163,4130.64102537,138,13
109,16,4193.97435884,4346.92307714,4255.51282052,4247.69230770,4381.53846182,4106.53846126,4160.76923056,4376.66666695,4122.17948691,4694.35897534,4134.23076896,4207.56410250,4377.43589772,4124.35897408,69,13
110,16,4172.94871781,4340.89743611,4247.69230770,4237.94871795,4372.43589772,4070.89743555,4150.38461518,4349.10256431,4103.71794844,4665.64102655,4104.74358947,4203.97435891,4409.10256445,4092.56410222,217,3
111,16,4168.46153833,4338.97435919,4241.41025641,4255.51282052,4384.35897464,4066.02564061,4162.43589723,4357.69230790,4118.97435870,4679.87179578,4136.02564082,4196.02564089,4393.84615413,4094.74358940,208,13
112,16,4142.43589723,4325.89743604,4235.76923077,4256.92307693,4460.25641068,4077.17948684,4128.71794844,4347.30769252,4112.05128178,4650.00000084,4129.61538434,4181.53846140,4346.41025662,4085.25640991,138,13
113,16,4182.17948704,4371.92307720,4279.87179495,4282.69230777,4540.64102627,4093.84615350,4143.84615364,4366.92307720,4137.05128185,4652.82051366,4132.43589716,4227.43589737,4402.69230804,4117.56410229,69,13
114,16,4227.05128199,4411.66666702,4301.92307707,4319.87179501,4556.28205191,4092.82051248,4181.79487166,4393.46153874,4160.76923056,4656.79487263,4152.17948697,4250.51282052,4441.02564145,4150.51282031,217,3
115,16,4181.53846140,4379.87179515,4268.33333341,4319.35897450,4580.76923147,4069.74358940,4151.28205108,4372.17948746,4142.43589723,4613.46153923,4113.33333306,4221.28205122,4392.30769259,4116.41025614,208,13
116,16,4139.10256390,4331.15384630,4226.41025634,4282.05128212,4604.10256487,4050.25640984,4112.30769203,4349.87179508,4106.79487152,4554.35897499,4128.71794844,4183.58974345,4338.46153867,4092.69230735,138,13
117,16,4149.35897415,4347.43589765,4236.15384616,4278.33333341,4618.58974436,4040.38461497,4116.41025614,4349.74358996,4113.84615357,4544.74359037,4138.58974339,4185.25641012,4339.35897457,4091.79487145,69,13
118,16,4206.02564096,4424.48717984,4293.20512828,4343.58974380,4700.38461636,4071.79487145,4175.25641012,4390.25641054,4173.07692294,4587.69230839,4149.87179467,4235.38461539,4385.00000028,4136.53846133,217,3
119,16,4234.23076923,4469.48717998,4314.35897450,4369.48717977,4756.02564207,4095.38461504,4199.99999986,4414.35897471,4189.48717935,4585.00000070,4174.48717935,4254.74358975,4397.56410285,4176.92307679,208,13
120,16,4185.51282038,4432.30769273,4269.35897443,4308.84615399,4718.71794969,4056.79487138,4132.56410229,4370.12820541,4147.30769210,4528.46153902,4134.74358947,4213.97435891,4362.69230790,4120.51282024,138,13
121,16,4142.30769210,4382.69230797,4217.30769224,4281.41025648,4717.43589841,4029.74358926,4086.79487145,4340.51282073,4104.35897408,4451.41025683,4144.99999980,4161.53846133,4308.97435912,4079.35897402,69,13
122,16,4179.48717935,4445.00000042,4258.33333334,4358.20512842,4780.12820624,4051.79487138,4135.25640998,4365.00000021,4132.56410229,4453.20512863,4168.84615371,4199.61538448,4341.53846175,4127.17948691,217,3
123,16,4217.82051275,4514.74359030,4294.74358982,4395.12820541,4783.20512932,4065.51282010,4177.17948704,4381.15384644,4168.33333320,4499.48718005,4175.51282038,4238.46153847,4391.28205156,4147.17948697,208,13
124,16,4176.02564089,4450.12820555,4243.71794872,4324.35897450,4762.30769342,4050.89743548,4137.05128185,4354.87179508,4128.07692280,4450.25641068,4189.87179474,4182.82051269,4343.20512842,4096.15384581,138,13
1,16,4181.92307679,4480.00000049,4257.17948718,4340.76923098,4830.76923202,4032.30769183,4147.94871774,4355.38461560,4147.43589723,4332.05128219,4216.53846147,4198.33333320,4329.48717963,4121.66666639,186,13
2,16,4147.56410236,4485.12820562,4238.84615385,4290.64102571,4802.05128324,3985.12820458,4125.51282024,4326.53846168,4127.43589716,4300.00000014,4197.05128192,4171.02564089,4297.82051289,4083.33333299,66,13
9,16,4168.97435884,4531.15384678,4249.10256411,4312.94871809,4764.23077035,4017.82051234,4133.46153819,4331.28205142,4159.61538441,4138.07692287,4241.92307693,4182.82051269,4281.66666674,4115.12820485,129,13
10,16,4168.33333320,4544.23076986,4261.02564103,4328.20512835,4728.07692412,4003.33333278,4147.05128185,4333.07692329,4162.17948697,4101.41025607,4220.38461532,4190.51282038,4265.64102564,4107.17948691,220,3
14,16,4168.58974345,4544.35897499,4246.79487180,4274.87179495,4666.28205219,3982.43589688,4149.87179467,4330.00000014,4157.30769210,4019.35897388,4265.38461539,4177.82051269,4238.84615385,4114.10256383,220,3
17,16,4156.53846133,4523.33333389,4241.79487180,4240.51282052,4622.56410333,3999.87179432,4125.76923050,4321.92307707,4152.56410236,3950.64102502,4239.87179488,4180.76923063,4236.28205129,4105.38461511,0,0
25,16,4209.35897429,4572.17948788,4279.23076930,4242.94871795,4511.02564159,4009.87179439,4149.23076903,4355.51282073,4183.97435884,3864.74358891,4244.87179488,4202.17948711,4212.94871788,4150.89743569,0,0
26,16,4088.71794837,4487.69230818,4186.02564089,4190.89743576,4475.89743639,3970.12820451,4042.30769189,4293.84615392,4094.61538427,3747.43589640,4223.71794865,4108.97435870,4121.79487152,4065.64102523,0,0
33,16,4070.51282017,4442.05128247,4169.74358961,4172.43589730,4463.84615434,3959.87179425,4022.30769183,4271.41025648,4078.46153812,3594.48717810,4223.97435891,4098.07692273,4039.35897395,4038.20512779,0,0
34,16,4132.94871767,4493.97435946,4222.43589737,4220.51282045,4467.56410305,3997.56410201,4083.97435863,4311.66666681,4125.64102537,3625.89743458,4278.97435905,4144.99999980,4082.82051248,4098.20512786,0,0
42,16,4153.84615364,4480.64102613,4209.10256404,4176.02564089,4397.30769259,4024.87179439,4122.05128178,4366.41025669,4161.02564082,3616.92307561,4260.00000000,4140.25641005,4079.74358940,4116.28205101,0,0
45,16,4144.87179467,4491.02564152,4191.79487166,4162.69230749,4382.82051310,4054.74358933,4126.53846126,4375.51282079,4171.92307679,3611.53846022,4288.46153853,4136.28205108,4095.12820478,4119.48717921,0,0
46,16,4167.56410236,4465.76923126,4194.35897422,4161.28205108,4358.46153867,4043.97435856,4146.28205108,4387.30769259,4175.38461525,3607.82051143,4281.53846161,4141.28205108,4097.05128171,4131.41025614,0,0
50,16,4177.94871781,4444.35897478,4190.76923063,4162.69230749,4328.20512835,4063.71794830,4147.82051262,4387.43589772,4178.58974345,3581.79487041,4282.17948725,4137.56410236,4093.58974325,4139.99999980,0,0
53,16,4131.02564075,4415.38461574,4158.46153826,4144.74358954,4331.92307707,4071.79487145,4127.82051255,4365.00000021,4162.94871774,3558.58974213,4243.20512821,4116.53846126,4065.51282010,4102.94871767,0,0
62,16,4121.02564075,4351.66666688,4111.53846126,4089.35897402,4244.61538462,4044.74358933,4100.12820478,4317.69230784,4137.69230749,3548.33333188,4213.20512814,4067.56410215,4021.53846106,4083.46153812,0,0
67,16,4109.74358947,4367.56410285,4104.23076896,4141.02564082,4231.15384609,4072.05128171,4107.43589716,4278.97435905,4119.23076896,3563.84615239,4182.43589730,4040.25640984,3966.15384553,4067.30769189,129,13
68,16,4125.38461511,4367.43589772,4103.97435870,4126.28205101,4226.15384609,4072.17948684,4117.69230742,4276.41025648,4131.41025614,3573.71794726,4158.84615364,4048.20512779,3971.15384553,4068.71794830,162,13
75,16,4139.87179467,4350.76923098,4109.48717921,4114.61538434,4180.64102551,4081.28205094,4130.89743562,4245.00000000,4133.46153819,3624.99999868,4190.25641012,4045.89743548,3970.51281989,4084.23076889,17,14
76,16,4108.71794844,4318.33333348,4097.94871761,4104.23076896,4190.25641012,4054.87179446,4104.61538434,4234.35897436,4124.87179460,3620.51281920,4162.56410236,4034.99999952,3960.64102502,4062.05128164,90,13
83,16,4118.46153819,4296.66666674,4126.15384588,4107.05128178,4178.71794858,4091.92307658,4106.41025614,4214.23076917,4145.76923056,3679.99999882,4146.53846133,4064.10256369,3981.66666611,4076.66666632,17,14
84,16,4148.07692287,4297.94871802,4143.46153826,4126.02564075,4147.82051262,4101.41025607,4145.51282031,4224.10256404,4167.69230749,3712.94871684,4180.25641012,4084.87179453,4002.69230714,4102.94871767,90,13
91,16,4102.05128171,4248.58974359,4099.48717914,4068.20512779,4089.74358940,4077.94871761,4097.94871761,4140.64102544,4113.97435870,3697.56410139,4136.41025621,4035.25640977,3953.07692246,4058.58974318,17,14
92,16,4072.94871761,4216.53846147,4075.51282017,4047.82051241,4077.69230735,4073.07692273,4075.38461504,4118.97435870,4089.74358940,3678.07692190,4133.84615357,4011.53846106,3928.33333264,4042.43589702,90,13
96,16,4131.92307665,4243.20512821,4138.20512800,4094.23076889,4078.20512786,4114.87179460,4134.99999973,4126.02564075,4140.89743569,3757.30769127,4119.61538434,4075.89743555,3979.61538406,4080.51282017,90,13
102,16,4145.89743569,4224.61538455,4124.99999973,4075.89743555,4077.30769196,4124.35897408,4134.74358947,4099.23076889,4145.76923056,3778.46153749,4059.61538420,4068.58974318,3995.51281996,4092.69230735,19,4
45,16,4122.94871767,3927.30769162,4109.99999973,4143.84615364,3933.84615316,4196.15384602,4089.99999966,4032.94871747,4091.28205094,3929.23076854,4130.38461511,4109.10256383,4027.17948670,4081.66666632,0,0
46,16,4122.05128178,3915.89743521,4103.58974332,4144.35897415,3950.12820451,4213.33333327,4093.97435863,4027.82051234,4101.92307658,3934.35897367,4121.66666639,4110.89743562,4032.05128157,4078.46153812,0,0
117,16,4103.58974332,3924.87179418,4064.35897395,3950.25640963,3809.99999910,4210.76923070,4095.76923043,4050.38461497,4095.89743555,4024.99999952,4028.84615336,4052.82051241,4040.76923036,4050.12820472,39,13
118,16,4107.82051255,3930.25640957,4064.87179446,3958.46153784,3812.43589654,4217.94871788,4093.97435863,4060.64102523,4094.87179453,4021.66666618,4047.30769189,4047.05128164,4038.84615343,4053.33333292,235,3
122,16,4088.33333299,3929.10256341,4071.02564068,3979.23076868,3812.05128115,4231.53846147,4101.66666632,4059.23076882,4096.79487145,4033.07692259,4018.58974311,4078.33333299,4047.94871754,4049.35897395,235,3
1,16,4087.94871761,3806.41025544,4075.76923043,3991.15384560,3782.82051185,4229.48717942,4090.25640991,4062.56410215,4084.48717914,4043.07692266,4043.46153805,4082.17948684,4049.10256369,4063.84615343,39,14
2,16,4081.92307658,3808.71794782,4086.79487145,3991.92307637,3787.56410160,4221.02564096,4078.97435863,4057.30769189,4086.15384581,4045.89743548,4009.10256362,4083.33333299,4050.51282010,4048.33333292,214,13
6,16,4102.56410229,3811.02564013,4083.46153812,4008.46153798,3790.76922980,4237.82051282,4086.15384581,4062.05128164,4094.61538427,4057.43589702,4035.51282003,4069.35897395,4057.05128164,4067.56410215,40,13
15,16,4101.53846119,3834.35897346,4084.23076889,4022.69230721,3796.53846057,4217.82051275,4067.17948677,4045.38461497,4094.99999966,4056.92307651,3986.02564047,4092.43589709,4069.61538420,4068.33333292,234,13
16,16,4112.05128178,3839.87179397,4086.92307658,4030.38461490,3793.46153749,4220.38461532,4076.15384581,4058.46153805,4099.23076889,4069.61538420,4010.25640977,4092.94871761,4079.99999966,4088.07692273,0,0
18,16,4096.02564068,3839.99999917,4076.02564068,4038.97435856,3798.84615288,4231.92307686,4088.46153812,4051.15384574,4088.20512786,4048.58974318,3965.51281989,4078.07692273,4059.48717907,4067.56410215,0,0
27,16,4100.76923043,3867.30769148,4070.38461504,4030.51282003,3814.23076833,4218.33333327,4093.71794837,4002.69230714,4084.99999966,4056.02564061,3926.53846085,4078.84615350,4064.87179446,4063.97435856,0,0
28,16,4100.25640991,3865.25640943,4061.92307651,4028.46153798,3813.20512731,4215.51282045,4098.71794837,4008.58974311,4088.58974325,4060.38461497,3914.61538392,4076.41025607,4067.56410215,4065.51282010,0,0
35,16,4092.43589709,3864.61538379,4090.89743555,4037.43589702,3867.82051199,4232.69230763,4115.76923050,4002.69230714,4105.38461511,4074.61538427,3903.20512744,4108.71794844,4085.25640991,4065.38461497,0,0
36,16,4104.74358947,3872.69230686,4129.48717921,4050.76923036,3867.17948635,4223.84615378,4103.33333306,4002.05128150,4100.51282017,4070.51282017,3939.87179425,4144.48717928,4094.74358940,4079.87179453,0,0
40,16,4123.20512793,3901.28205052,4305.89743604,4134.10256383,3884.74358898,4209.10256404,4092.05128171,3982.69230714,4103.20512793,4078.97435863,3948.33333271,4338.71794893,4140.12820492,4109.74358947,0,0
49,16,4171.41025628,3950.51281989,4445.51282093,4169.87179474,3923.20512751,4205.89743583,4101.66666632,3998.84615329,4126.79487152,4122.17948691,4014.23076875,4515.00000056,4201.28205122,4171.28205115,0,0
50,16,4167.56410236,3957.43589681,4444.48717991,4151.28205108,3923.20512751,4203.84615378,4104.10256383,3997.17948663,4135.89743569,4130.64102537,4006.15384567,4516.15384671,4220.89743583,4162.56410236,0,0
52,16,4177.69230756,3957.82051220,4413.46153881,4131.02564075,3926.41025572,4201.28205122,4109.35897408,4004.99999952,4147.05128185,4153.33333313,4025.38461490,4495.51282100,4223.46153840,4180.89743576,0,0
59,16,4152.69230749,3928.71794803,4251.79487180,4051.02564061,3937.69230700,4198.46153833,4114.61538434,3991.66666611,4138.84615364,4160.89743569,4037.69230728,4410.64102599,4229.61538455,4170.76923063,0,0
60,16,4153.97435877,3927.69230700,4232.82051275,4042.56410215,3946.53846092,4196.79487166,4118.97435870,3980.51281996,4140.64102544,4175.12820499,4029.48717900,4400.25641061,4242.30769231,4164.61538441,0,0
67,16,4143.46153826,3939.74358912,4189.35897422,4023.84615336,3967.94871733,4196.79487166,4118.46153819,3997.56410201,4145.12820492,4158.07692287,4071.02564068,4302.82051296,4210.64102558,4142.30769210,139,13
68,16,4136.66666646,3939.74358912,4181.28205115,4016.92307644,3977.43589688,4192.56410243,4118.46153819,3987.43589688,4138.20512800,4154.10256390,4048.20512779,4297.69230777,4206.41025634,4134.74358947,254,13
76,16,4131.28205101,3957.56410194,4112.05128178,4019.48717900,4015.38461490,4196.92307679,4146.15384595,4008.20512772,4148.97435877,4136.92307672,4081.41025607,4214.23076917,4164.87179467,4110.12820485,223,13
79,16,4133.46153819,3966.53846092,4107.05128178,4028.97435849,4027.30769183,4207.82051275,4149.87179467,4006.66666618,4143.20512800,4132.43589716,4093.07692273,4207.30769224,4161.15384595,4109.61538434,224,13
80,16,4130.25640998,3969.23076861,4108.33333306,4031.28205080,4030.76923029,4204.74358968,4149.10256390,3998.58974304,4151.02564082,4137.17948697,4091.53846119,4204.48717942,4164.74358954,4113.33333306,223,13
88,16,4146.02564082,4000.76923022,4121.79487152,4049.61538420,4040.38461497,4197.43589730,4150.38461518,4004.99999952,4158.46153826,4155.51282031,4106.79487152,4203.33333327,4172.94871781,4114.10256383,223,13
93,16,4141.53846133,4017.82051234,4148.20512800,4068.46153805,4063.84615343,4202.56410250,4151.41025621,4025.51282003,4169.48717935,4165.12820492,4121.28205101,4225.64102558,4166.53846133,4115.38461511,32,13
94,16,4140.25641005,4015.89743541,4147.56410236,4073.07692273,4058.58974318,4198.97435884,4157.69230749,4034.74358926,4171.92307679,4165.64102544,4147.56410236,4228.71794865,4162.82051262,4113.58974332,254,3
101,16,4170.76923063,4101.41025607,4302.43589758,4236.79487180,4085.51282017,4176.15384602,4134.74358947,3984.10256355,4121.79487152,4120.76923050,4143.46153826,4333.46153867,4131.41025614,4121.02564075,32,13
102,16,4167.43589723,4103.46153819,4317.43589758,4251.79487180,4087.30769196,4182.56410243,4143.84615364,3993.33333278,4117.94871767,4106.15384588,4156.02564082,4322.43589758,4112.30769203,4119.99999973,254,3
109,16,4136.15384595,4100.25640991,4141.41025621,4212.05128199,4104.35897408,4188.71794858,4153.97435877,3989.87179432,4123.20512793,4114.61538434,4088.46153812,4152.05128185,4071.66666632,4086.28205094,32,13
110,16,4133.33333306,4083.97435863,4117.30769203,4198.07692294,4096.02564068,4184.10256397,4151.28205108,3979.23076868,4116.92307665,4100.89743555,4092.94871761,4134.35897408,4063.20512779,4080.12820478,254,3
117,16,4138.71794851,4084.74358940,4080.76923043,4158.07692287,4090.89743555,4172.17948704,4142.43589723,3986.41025586,4127.82051255,4110.38461511,4113.20512793,4090.89743555,4066.66666625,4092.05128171,32,13
118,16,4137.94871774,4082.82051248,4081.28205094,4160.51282031,4109.48717921,4178.33333320,4149.87179467,4000.51281996,4138.97435877,4121.15384588,4097.69230735,4093.97435863,4076.92307658,4090.51282017,254,3
121,16,4134.35897408,4104.87179460,4080.38461504,4163.46153826,4117.82051255,4178.20512807,4153.71794851,4015.76923029,4159.23076903,4136.53846133,4113.33333306,4104.74358947,4095.51282017,4088.20512786,32,13
3,16,4146.15384595,4128.07692280,4087.82051248,4197.30769217,4126.28205101,4169.61538448,4134.23076896,4007.05128157,4143.97435877,4118.71794844,4137.43589723,4101.02564068,4081.92307658,4086.92307658,128,13
4,16,4151.92307672,4130.12820485,4092.56410222,4198.20512807,4124.48717921,4178.20512807,4143.58974339,4018.46153798,4138.58974339,4119.48717921,4159.99999980,4099.99999966,4089.48717914,4102.17948684,241,13
5,16,4150.89743569,4128.71794844,4087.17948684,4196.66666653,4122.17948691,4173.84615371,4139.74358954,4015.89743541,4142.17948697,4123.20512793,4151.66666646,4104.10256383,4087.30769196,4102.69230742,117,12
14,16,4127.94871767,4121.92307665,4064.23076882,4193.46153833,4141.15384595,4151.92307672,4140.51282031,4012.30769183,4145.38461518,4126.28205101,4211.15384609,4090.51282017,4086.41025607,4084.48717914,4,4
19,16,4139.61538441,4137.30769210,4001.53846099,4200.89743576,4154.61538441,4161.15384595,4149.35897415,4002.17948663,4148.97435877,4138.71794851,4283.20512828,4103.97435870,4100.38461504,4098.58974325,0,0
20,16,4132.56410229,4129.10256383,4015.76923029,4193.84615371,4146.28205108,4158.46153826,4147.56410236,4001.66666611,4143.84615364,4126.02564075,4292.56410264,4108.46153819,4103.84615357,4095.38461504,0,0
27,16,4131.66666639,4119.35897408,3966.28205066,4184.10256397,4153.07692287,4156.28205108,4146.41025621,4014.35897388,4143.84615364,4125.64102537,4348.33333355,4098.33333299,4100.38461504,4088.71794837,0,0
28,16,4127.30769203,4122.05128178,3970.76923015,4182.82051269,4156.92307672,4158.20512800,4147.69230749,4012.82051234,4146.66666646,4130.64102537,4338.33333355,4093.07692273,4093.84615350,4077.56410222,0,0
35,16,4127.56410229,4118.97435870,3972.94871740,4170.25641012,4157.56410236,4167.43589723,4144.74358954,4046.66666625,4139.10256390,4128.58974332,4345.51282073,4084.48717914,4094.61538427,4089.99999966,0,0
36,16,4118.46153819,4118.33333306,3970.76923015,4168.46153833,4158.84615364,4158.97435877,4138.58974339,4035.64102516,4138.33333313,4127.30769203,4314.87179501,4091.79487145,4100.38461504,4074.99999966,0,0
38,16,4125.76923050,4117.30769203,3976.02564047,4166.79487159,4169.48717935,4163.33333313,4140.38461518,4049.87179446,4141.15384595,4144.87179467,4339.74358996,4080.38461504,4104.74358947,4084.48717914,0,0
42,16,4117.82051255,4117.30769203,3968.07692246,4162.69230749,4161.92307672,4166.66666646,4146.66666646,4066.15384574,4144.87179467,4139.48717928,4349.23076944,4073.71794837,4101.02564068,4082.94871761,0,0
51,16,4126.66666639,4127.94871767,4036.79487131,4177.05128192,4163.58974339,4148.84615364,4136.15384595,4097.05128171,4150.76923056,4151.02564082,4330.38461553,4097.43589709,4118.84615357,4085.51282017,0,0
52,16,4131.79487152,4128.07692280,4030.76923029,4174.35897422,4160.89743569,4143.20512800,4135.64102544,4104.61538434,4148.46153826,4152.30769210,4358.33333355,4098.71794837,4124.48717921,4097.94871761,0,0
59,16,4131.66666639,4129.99999973,4053.58974318,4176.92307679,4168.84615371,4145.64102544,4124.48717921,4110.51282024,4136.02564082,4135.89743569,4320.76923091,4106.92307665,4116.92307665,4089.61538427,0,0
60,16,4140.38461518,4123.84615357,4042.30769189,4167.17948697,4169.99999986,4150.76923056,4132.17948691,4130.25640998,4135.25640998,4133.33333306,4328.71794886,4090.25640991,4113.33333306,4101.79487145,0,0
63,16,4146.92307672,4122.69230742,4100.25640991,4160.12820492,4164.87179467,4144.48717928,4141.15384595,4164.48717928,4153.84615364,4166.41025621,4357.69230790,4164.87179467,4155.38461518,4110.89743562,0,0
72,16,4189.61538448,4133.07692280,4309.10256425,4145.76923056,4162.17948697,4160.25641005,4146.02564082,4218.58974352,4201.66666660,4258.58974359,4396.79487208,4442.56410298,4313.07692322,4197.82051269,162,12
77,16,4185.51282038,4118.33333306,4245.12820513,4103.46153819,4163.71794851,4156.53846133,4141.92307672,4243.33333334,4189.23076910,4245.76923077,4344.74358996,4392.94871823,4296.92307700,4180.89743576,32,13
78,16,4185.38461525,4107.69230742,4240.76923077,4094.10256376,4160.64102544,4149.35897415,4136.79487159,4231.79487173,4174.23076910,4229.48717942,4363.71794893,4373.20512849,4282.30769238,4184.87179474,254,3
85,16,4151.28205108,4082.69230735,4124.23076896,4043.46153805,4195.64102551,4133.84615357,4145.12820492,4291.02564110,4199.61538448,4234.35897436,4269.74358982,4253.84615385,4260.76923077,4151.79487159,32,13
86,16,4160.51282031,4094.35897402,4127.69230742,4056.79487138,4206.02564096,4137.30769210,4140.25641005,4289.48717956,4214.35897429,4250.51282052,4250.00000000,4256.53846154,4274.10256418,4160.12820492,254,3
93,16,4157.05128185,4097.05128171,4091.41025607,4041.28205087,4219.23076917,4134.87179460,4143.71794851,4267.05128212,4186.79487166,4223.84615378,4289.48717956,4190.89743576,4243.07692308,4155.76923056,32,13
94,16,4150.76923056,4101.53846119,4091.28205094,4044.61538420,4224.23076917,4138.33333313,4154.23076903,4287.05128212,4202.56410250,4235.51282052,4278.84615392,4186.02564089,4237.94871795,4146.28205108,254,3
96,16,4143.97435877,4088.33333299,4064.87179446,4030.76923029,4219.87179481,4135.25640998,4162.56410236,4308.46153860,4195.64102551,4220.89743583,4275.12820520,4151.66666646,4218.33333327,4130.76923050,206,13
105,16,4132.82051255,4093.58974325,4035.38461490,4035.89743541,4239.35897436,4140.38461518,4166.92307672,4299.87179501,4181.28205115,4189.48717935,4288.71794879,4093.20512786,4173.97435884,4102.82051255,32,13
106,16,4138.58974339,4096.92307658,4046.28205087,4043.46153805,4244.61538462,4150.12820492,4176.53846140,4310.76923091,4196.02564089,4198.84615371,4290.00000007,4112.30769203,4186.15384602,4112.30769203,254,3
109,16,4127.43589716,4081.92307658,4035.51282003,4020.76923029,4235.76923077,4138.20512800,4174.99999986,4305.25641040,4197.82051269,4198.46153833,4302.94871809,4097.05128171,4181.41025628,4106.92307665,32,13
118,16,4129.23076896,4175.64102551,4074.48717914,4222.30769224,4241.41025641,4131.41025614,4141.66666646,4225.76923070,4123.46153819,4107.56410229,4208.71794865,4061.02564061,4050.76923036,4066.15384574,254,3
121,16,4136.79487159,4173.20512807,4078.97435863,4207.17948711,4233.46153840,4134.87179460,4124.99999973,4198.20512807,4112.30769203,4091.41025607,4163.84615364,4058.07692266,4060.25640984,4075.12820478,32,13
122,16,4133.20512793,4176.28205115,4072.82051248,4205.76923070,4234.74358975,4139.35897415,4127.82051255,4189.61538448,4121.28205101,4101.28205094,4138.84615364,4064.87179446,4067.30769189,4071.15384581,254,3
2,16,4136.92307672,4171.15384602,4110.76923050,4200.89743576,4206.28205122,4135.38461518,4138.71794851,4179.61538448,4134.10256383,4116.92307665,4106.92307665,4068.33333292,4079.23076889,4078.97435863,169,13
7,16,4116.66666639,4154.99999980,4088.33333299,4173.71794858,4186.53846140,4130.64102537,4132.43589716,4139.61538441,4105.76923050,4085.25640991,4148.07692287,4041.41025600,4052.05128164,4054.74358933,121,10
8,16,4116.41025614,4152.30769210,4081.15384581,4171.02564089,4177.30769217,4129.23076896,4129.48717921,4136.15384595,4094.48717914,4075.76923043,4156.02564082,4036.02564054,4045.12820472,4061.02564061,86,13
15,16,4117.05128178,4154.61538441,4094.87179453,4170.76923063,4150.51282031,4123.84615357,4115.25640998,4127.43589716,4097.30769196,4081.79487145,4183.20512807,4054.87179446,4061.66666625,4053.84615343,213,13
16,16,4125.76923050,4158.71794851,4103.71794844,4180.64102551,4157.30769210,4131.92307665,4125.89743562,4130.12820485,4101.92307658,4091.66666632,4203.33333327,4065.25640984,4063.97435856,4066.41025600,0,0
23,16,4123.71794844,4165.89743569,4120.51282024,4177.30769217,4158.84615364,4138.46153826,4129.61538434,4144.61538441,4121.41025614,4108.84615357,4217.56410250,4078.84615350,4082.43589709,4076.28205094,0,0
24,16,4125.64102537,4172.82051269,4124.23076896,4179.74358961,4161.02564082,4132.30769203,4128.58974332,4134.35897408,4119.87179460,4112.43589716,4196.53846140,4079.74358940,4081.41025607,4070.64102530,0,0
31,16,4127.94871767,4169.10256397,4114.35897408,4171.92307679,4149.23076903,4139.61538441,4129.10256383,4118.07692280,4115.38461511,4109.35897408,4242.05128206,4074.48717914,4076.53846119,4073.20512786,0,0
32,16,4123.07692280,4169.23076910,4123.07692280,4167.43589723,4154.99999980,4132.94871767,4123.58974332,4113.33333306,4119.99999973,4113.07692280,4216.92307686,4075.51282017,4077.05128171,4066.92307651,0,0
36,16,4107.82051255,4145.89743569,4096.41025607,4138.58974339,4134.23076896,4136.41025621,4116.41025614,4096.02564068,4105.64102537,4091.92307658,4225.51282045,4041.02564061,4058.71794830,4057.69230728,0,0
39,16,4117.05128178,4160.38461518,4124.61538434,4151.02564082,4143.71794851,4132.94871767,4132.43589716,4113.58974332,4126.02564075,4111.02564075,4187.30769217,4074.23076889,4082.43589709,4072.82051248,0,0
48,16,4131.15384588,4169.48717935,4138.46153826,4159.87179467,4142.05128185,4131.28205101,4124.48717921,4101.02564068,4131.79487152,4130.51282024,4187.05128192,4089.10256376,4103.33333306,4090.64102530,0,0
53,16,4136.41025621,4177.56410243,4145.64102544,4161.92307672,4146.28205108,4142.30769210,4133.46153819,4086.79487145,4135.12820485,4139.74358954,4168.07692287,4093.97435863,4107.17948691,4086.41025607,0,0
54,16,4140.76923056,4173.33333320,4144.61538441,4162.56410236,4144.10256390,4141.15384595,4132.69230742,4078.20512786,4125.12820485,4130.76923050,4159.23076903,4092.56410222,4106.28205101,4088.46153812,0,0
61,16,4139.10256390,4176.41025628,4152.05128185,4162.69230749,4144.35897415,4147.69230749,4147.56410236,4078.33333299,4140.64102544,4149.99999980,4158.07692287,4101.28205094,4114.10256383,4098.46153812,0,0
62,16,4134.35897408,4170.89743576,4162.17948697,4157.05128185,4146.66666646,4146.41025621,4144.74358954,4073.07692273,4146.15384595,4155.64102544,4139.61538441,4099.61538427,4112.43589716,4089.99999966,0,0
70,16,4133.46153819,4183.97435884,4172.05128192,4174.35897422,4163.20512800,4150.64102544,4139.10256390,4071.02564068,4143.71794851,4143.71794851,4088.33333299,4104.61538434,4114.48717921,4088.07692273,23,13
75,16,4122.56410229,4168.71794858,4159.23076903,4166.02564082,4164.48717928,4144.87179467,4140.76923056,4084.10256376,4144.99999980,4136.79487159,4073.46153812,4101.41025607,4110.38461511,4085.25640991,224,13
76,16,4120.12820485,4162.17948697,4144.99999980,4156.02564082,4160.51282031,4143.71794851,4141.66666646,4087.30769196,4134.48717921,4131.53846126,4105.64102537,4089.23076889,4100.89743555,4085.76923043,225,13
83,16,4147.56410236,4181.15384602,4176.15384602,4172.17948704,4167.43589723,4138.33333313,4125.51282024,4141.41025621,4148.46153826,4146.28205108,4046.15384574,4110.64102537,4117.82051255,4099.10256376,224,13
84,16,4146.92307672,4173.07692294,4168.58974345,4168.97435884,4154.74358954,4143.46153826,4129.74358947,4144.48717928,4135.76923056,4138.07692287,4038.07692266,4104.74358947,4110.25640998,4096.28205094,225,13
92,16,4144.48717928,4168.97435884,4162.17948697,4153.20512800,4160.25641005,4149.23076903,4137.94871774,4175.25641012,4122.30769203,4125.12820485,3997.43589688,4096.66666632,4109.35897408,4096.53846119,225,13
95,16,4141.92307672,4165.51282031,4167.05128185,4148.71794851,4163.97435877,4138.58974339,4132.43589716,4189.74358961,4135.51282031,4131.28205101,3950.76923015,4101.28205094,4112.05128178,4096.28205094,224,13
96,16,4140.89743569,4161.53846133,4170.76923063,4148.71794851,4161.28205108,4139.87179467,4138.07692287,4190.76923063,4130.38461511,4129.74358947,3979.87179432,4108.84615357,4117.17948691,4095.64102530,225,13
104,16,4156.66666646,4169.74358961,4195.76923063,4156.28205108,4162.05128185,4155.64102544,4149.23076903,4220.51282045,4157.56410236,4151.41025621,3976.41025586,4122.82051255,4140.12820492,4112.05128178,225,13
109,16,4146.15384595,4158.84615364,4190.12820499,4145.25641005,4164.23076903,4152.30769210,4153.33333313,4221.92307686,4157.82051262,4151.79487159,3962.05128143,4125.12820485,4146.79487159,4114.10256383,50,13
110,16,4148.33333313,4168.33333320,4201.28205122,4152.43589723,4169.48717935,4153.33333313,4155.51282031,4222.05128199,4170.64102551,4164.61538441,3949.35897374,4137.69230749,4159.87179467,4116.79487152,1,4
117,16,4140.76923056,4158.84615364,4190.25641012,4141.15384595,4153.33333313,4140.12820492,4134.99999973,4174.74358961,4136.79487159,4144.61538441,3952.69230707,4117.82051255,4136.79487159,4111.41025614,50,13
118,16,4147.82051262,4162.94871774,4197.56410243,4141.79487159,4158.71794851,4137.17948697,4124.35897408,4180.12820499,4138.58974339,4149.10256390,3923.84615316,4126.28205101,4143.84615364,4105.38461511,1,4
126,16,4135.76923056,4159.61538441,4193.58974345,4136.79487159,4153.33333313,4125.38461511,4124.99999973,4183.97435884,4145.12820492,4160.64102544,3903.97435821,4130.38461511,4145.25641005,4099.61538427,1,4
1,16,4126.28205101,4149.87179467,4179.87179474,4126.66666639,4147.94871774,4125.51282024,4120.25640998,4182.56410243,4135.51282031,4137.56410236,3912.82051213,4114.87179460,4131.02564075,4094.35897402,230,13
2,16,4137.69230749,4159.48717928,4200.38461525,4139.23076903,4152.56410236,4131.53846126,4130.51282024,4193.20512807,4151.66666646,4154.23076903,3908.97435828,4134.99999973,4147.94871774,4111.92307665,173,13
9,16,4133.58974332,4154.35897415,4193.71794858,4143.33333313,4152.69230749,4134.23076896,4136.28205108,4181.53846140,4146.02564082,4147.05128185,3964.99999938,4123.84615357,4139.48717928,4106.02564075,244,13
10,16,4135.76923056,4165.12820492,4212.82051275,4147.43589723,4154.61538441,4133.71794844,4129.10256383,4175.64102551,4146.66666646,4153.58974339,3955.12820451,4132.30769203,4141.28205108,4099.10256376,36,4
19,16,4141.02564082,4151.15384595,4215.25641019,4136.92307672,4149.10256390,4139.10256390,4138.07692287,4190.64102551,4142.56410236,4149.99999980,4021.92307644,4122.05128178,4137.17948697,4111.92307665,0,0
20,16,4140.64102544,4152.94871774,4226.02564096,4137.05128185,4151.41025621,4126.53846126,4134.48717921,4194.48717935,4146.79487159,4154.87179467,4009.61538413,4124.87179460,4141.66666646,4107.69230742,0,0
22,16,4144.99999980,4155.25641005,4233.07692301,4142.82051262,4149.10256390,4130.89743562,4133.71794844,4187.05128192,4138.71794851,4149.10256390,4019.23076875,4131.92307665,4138.97435877,4112.17948691,0,0
31,16,4133.33333306,4161.53846133,4225.51282045,4154.48717928,4149.87179467,4128.46153819,4129.61538434,4198.71794858,4147.43589723,4152.05128185,4044.23076882,4117.30769203,4131.02564075,4099.61538427,0,0
32,16,4133.07692280,4150.89743569,4210.64102558,4148.97435877,4143.97435877,4130.25640998,4131.02564075,4195.51282038,4140.12820492,4145.89743569,4053.71794830,4112.69230742,4129.35897408,4101.28205094,0,0
39,16,4139.23076903,4161.66666646,4207.82051275,4161.15384595,4158.97435877,4132.56410229,4128.97435870,4209.99999993,4139.87179467,4141.15384595,4087.43589709,4126.02564075,4134.99999973,4106.92307665,0,0
40,16,4136.28205108,4162.43589723,4205.38461532,4165.51282031,4158.33333313,4127.56410229,4128.71794844,4210.89743583,4135.38461518,4138.97435877,4092.17948684,4119.74358947,4129.48717921,4102.43589709,0,0
47,16,4134.23076896,4159.87179467,4197.56410243,4171.15384602,4169.10256397,4129.23076896,4124.87179460,4235.12820513,4132.30769203,4134.48717921,4103.20512793,4131.53846126,4139.87179467,4103.97435870,0,0
48,16,4140.64102544,4177.43589730,4217.05128199,4183.58974345,4177.56410243,4133.71794844,4130.25640998,4239.48717949,4146.53846133,4151.28205108,4091.15384581,4147.17948697,4151.92307672,4111.53846126,0,0
52,16,4152.30769210,4170.76923063,4207.05128199,4172.69230756,4166.79487159,4128.84615357,4131.92307665,4264.48717949,4145.89743569,4146.66666646,4128.71794844,4154.87179467,4156.02564082,4122.17948691,0,0
55,16,4144.23076903,4166.41025621,4202.17948711,4172.05128192,4161.53846133,4123.07692280,4114.99999973,4259.61538462,4132.17948691,4137.94871774,4153.84615364,4139.74358954,4140.64102544,4114.61538434,0,0
63,16,4135.64102544,4169.10256397,4201.92307686,4166.53846133,4172.56410243,4137.94871774,4144.74358954,4295.51282059,4159.74358954,4161.79487159,4161.66666646,4148.97435877,4155.64102544,4105.76923050,0,0
64,16,4130.76923050,4162.69230749,4190.25641012,4162.05128185,4162.30769210,4128.84615357,4131.02564075,4286.41025648,4149.61538441,4153.46153826,4174.99999986,4137.17948697,4144.23076903,4094.87179453,187,13
71,16,4143.46153826,4169.23076910,4200.12820499,4162.94871774,4168.46153833,4125.12820485,4126.28205101,4265.00000000,4144.87179467,4156.79487159,4187.94871781,4139.35897415,4145.89743569,4101.79487145,115,10
72,16,4144.35897415,4163.20512800,4196.66666653,4158.33333313,4160.25641005,4127.17948691,4125.89743562,4263.84615385,4142.82051262,4155.12820492,4199.61538448,4137.17948697,4146.66666646,4106.02564075,128,13
80,16,4132.69230742,4148.97435877,4185.51282038,4135.38461518,4158.58974339,4124.99999973,4125.38461511,4230.25641019,4138.33333313,4146.79487159,4236.15384616,4115.51282024,4135.38461518,4097.82051248,167,14
83,16,4130.76923050,4151.79487159,4187.56410243,4138.97435877,4154.61538441,4117.94871767,4132.43589716,4220.38461532,4129.74358947,4138.97435877,4211.41025634,4118.71794844,4134.74358947,4090.12820478,217,13
84,16,4129.87179460,4154.74358954,4192.05128192,4143.71794851,4154.74358954,4114.87179460,4131.15384588,4208.84615378,4134.10256383,4142.17948697,4211.53846147,4125.64102537,4137.05128185,4087.56410222,167,14
88,16,4126.41025614,4146.66666646,4187.30769217,4138.71794851,4141.66666646,4113.97435870,4127.56410229,4200.38461525,4141.15384595,4152.30769210,4223.97435891,4120.25640998,4134.23076896,4089.87179453,167,14
91,16,4118.33333306,4136.53846133,4179.48717935,4123.33333306,4136.41025621,4108.46153819,4118.46153819,4185.51282038,4134.74358947,4146.28205108,4227.05128199,4106.15384588,4126.79487152,4082.17948684,217,13
100,16,4132.30769203,4156.53846133,4195.51282038,4142.82051262,4147.94871774,4117.56410229,4117.43589716,4144.74358954,4130.25640998,4149.74358954,4263.07692308,4112.30769203,4126.41025614,4093.33333299,167,14
105,16,4133.84615357,4149.87179467,4204.87179481,4135.51282031,4143.07692287,4114.74358947,4120.89743562,4131.02564075,4137.94871774,4150.76923056,4259.87179488,4113.84615357,4126.79487152,4090.12820478,48,13
106,16,4122.43589716,4146.02564082,4200.25641012,4130.64102537,4147.56410236,4117.30769203,4118.07692280,4126.02564075,4132.05128178,4147.69230749,4243.07692308,4109.74358947,4123.97435870,4081.15384581,50,4
113,16,4150.25641005,4157.56410236,4201.15384609,4142.05128185,4150.76923056,4112.69230742,4121.28205101,4092.17948684,4126.41025614,4152.17948697,4244.87179488,4122.94871767,4133.33333306,4104.48717921,48,13
114,16,4144.48717928,4155.25641005,4205.38461532,4132.69230742,4148.71794851,4107.82051255,4116.41025614,4088.46153812,4133.58974332,4154.35897415,4228.97435891,4124.61538434,4133.33333306,4094.61538427,50,4
115,16,4141.41025621,4143.84615364,4190.76923063,4117.82051255,4136.28205108,4110.12820485,4113.58974332,4090.76923043,4132.05128178,4150.12820492,4256.53846154,4113.58974332,4124.35897408,4097.56410222,217,13
124,16,4126.79487152,4150.38461518,4206.79487173,4135.76923056,4142.30769210,4118.58974332,4119.23076896,4097.94871761,4130.38461511,4153.46153826,4211.66666660,4130.64102537,4132.17948691,4088.97435863,167,14
127,16,4132.82051255,4147.43589723,4203.33333327,4132.82051255,4150.12820492,4116.92307665,4126.66666639,4116.92307665,4134.87179460,4148.20512800,4204.48717942,4121.15384588,4123.84615357,4090.25640991,57,0
0,16,4137.43589723,4142.94871774,4199.74358961,4129.99999973,4142.17948697,4121.15384588,4131.79487152,4128.71794844,4140.12820492,4155.12820492,4219.10256404,4121.41025614,4129.99999973,4101.41025607,183,13
9,16,4120.89743562,4142.69230749,4196.92307679,4137.69230749,4163.58974339,4123.46153819,4122.82051255,4140.76923056,4135.76923056,4144.87179467,4168.46153833,4123.84615357,4121.92307665,4081.79487145,254,13
10,16,4125.51282024,4147.82051262,4185.51282038,4140.25641005,4165.89743569,4131.41025614,4134.74358947,4154.74358954,4134.48717921,4143.71794851,4180.51282038,4122.17948691,4119.10256383,4093.58974325,13,4
53,16,4132.30769203,4154.35897415,4230.51282045,4148.20512800,4156.92307672,4139.23076903,4119.87179460,4348.97435919,4132.43589716,4140.76923056,4231.79487173,4127.56410229,4134.10256383,4094.87179453,0,0
54,16,4143.07692287,4164.87179467,4246.15384616,4150.89743569,4165.89743569,4140.89743569,4124.74358947,4350.51282073,4145.64102544,4148.71794851,4215.64102558,4141.79487159,4144.74358954,4101.66666632,0,0
88,16,4155.89743569,4169.74358961,4223.33333327,4169.10256397,4154.35897415,4142.17948697,4130.25640998,4179.10256397,4149.10256390,4156.02564082,4209.74358968,4151.15384595,4144.10256390,4110.12820485,236,13
32,16,4152.82051262,4160.51282031,4216.66666660,4156.53846133,4162.56410236,4160.89743569,4134.48717921,4100.12820478,4146.92307672,4154.87179467,4175.12820499,4137.17948697,4156.66666646,4121.41025614,0,0
37,16,4133.71794844,4139.48717928,4206.66666660,4150.89743569,4133.58974332,4147.05128185,4140.64102544,4107.56410229,4132.30769203,4137.82051262,4175.89743576,4123.58974332,4137.05128185,4100.25640991,0,0
38,16,4129.99999973,4149.74358954,4219.87179481,4160.89743569,4150.25641005,4151.92307672,4143.58974339,4116.41025614,4139.99999980,4144.23076903,4152.17948697,4132.69230742,4143.20512800,4094.48717914,0,0
45,16,4146.02564082,4155.89743569,4235.00000000,4166.66666646,4147.30769210,4157.82051262,4140.25641005,4126.02564075,4156.02564082,4155.64102544,4160.51282031,4147.56410236,4158.20512800,4108.97435870,0,0
46,16,4141.15384595,4150.76923056,4238.46153847,4157.94871774,4139.87179467,4160.51282031,4139.87179467,4118.20512793,4142.30769210,4146.92307672,4166.53846133,4137.82051262,4150.64102544,4103.33333306,0,0
54,16,4136.28205108,4150.38461518,4221.53846147,4156.02564082,4140.38461518,4162.69230749,4135.25640998,4130.38461511,4142.94871774,4155.64102544,4165.38461518,4144.23076903,4150.25641005,4106.15384588,0,0
57,16,4151.92307672,4152.05128185,4233.33333327,4157.30769210,4142.30769210,4156.53846133,4141.02564082,4140.76923056,4148.07692287,4163.46153826,4184.10256397,4146.79487159,4154.74358954,4114.87179460,0,0
58,16,4141.15384595,4155.51282031,4234.61538462,4153.97435877,4147.69230749,4153.33333313,4131.66666639,4138.46153826,4145.38461518,4160.89743569,4154.99999980,4157.82051262,4156.02564082,4101.66666632,0,0
66,16,4137.94871774,4151.41025621,4222.69230763,4163.07692287,4161.15384595,4150.12820492,4142.69230749,4148.33333313,4147.56410236,4157.69230749,4161.15384595,4148.46153826,4157.17948697,4095.51282017,164,13
71,16,4123.20512793,4141.02564082,4218.07692301,4160.51282031,4147.94871774,4150.89743569,4134.87179460,4141.41025621,4141.79487159,4144.99999980,4146.92307672,4137.30769210,4139.48717928,4075.51282017,129,10
72,16,4131.41025614,4147.05128185,4216.15384609,4170.12820499,4155.25641005,4150.64102544,4133.07692280,4145.12820492,4134.99999973,4138.71794851,4174.23076910,4123.20512793,4129.61538434,4085.51282017,118,13
78,16,4136.02564082,4140.64102544,4223.07692301,4157.43589723,4155.38461518,4144.35897415,4135.76923056,4139.35897415,4132.56410229,4128.71794844,4141.92307672,4120.76923050,4129.74358947,4082.43589709,21,4
81,16,4133.71794844,4141.79487159,4237.17948718,4165.51282031,4153.58974339,4139.74358954,4124.74358947,4139.10256390,4139.10256390,4142.82051262,4140.64102544,4135.89743569,4146.66666646,4080.76923043,45,13
82,16,4147.69230749,4145.25641005,4243.84615385,4172.05128192,4159.48717928,4146.66666646,4134.10256383,4155.25641005,4143.84615364,4145.64102544,4171.66666653,4135.12820485,4148.84615364,4103.20512793,21,4
89,16,4142.05128185,4133.07692280,4222.69230763,4151.66666646,4140.89743569,4142.17948697,4132.30769203,4136.28205108,4144.87179467,4141.02564082,4135.38461518,4142.82051262,4150.38461518,4098.46153812,45,13
90,16,4151.28205108,4135.89743569,4217.17948711,4152.43589723,4141.02564082,4145.76923056,4143.84615364,4134.10256383,4140.12820492,4139.99999980,4148.71794851,4137.82051262,4148.71794851,4101.92307658,21,4
92,16,4143.20512800,4132.69230742,4200.76923063,4141.02564082,4127.56410229,4137.05128185,4134.35897408,4121.92307665,4128.33333306,4131.15384588,4152.43589723,4115.25640998,4133.33333306,4099.35897402,227,13
101,16,4142.56410236,4147.82051262,4204.35897429,4155.64102544,4151.28205108,4140.38461518,4127.17948691,4090.12820478,4139.74358954,4137.82051262,4122.56410229,4122.82051255,4143.46153826,4084.87179453,45,13
102,16,4143.33333313,4142.17948697,4203.84615378,4152.56410236,4144.99999980,4141.28205108,4125.89743562,4084.74358940,4128.46153819,4129.87179460,4146.41025621,4115.89743562,4135.76923056,4090.12820478,21,4
109,16,4120.38461511,4140.51282031,4195.12820499,4146.28205108,4140.51282031,4134.10256383,4114.10256383,4048.33333292,4127.56410229,4120.38461511,4107.94871767,4110.76923050,4124.10256383,4064.23076882,45,13
110,16,4122.94871767,4133.71794844,4190.25641012,4141.28205108,4137.30769210,4137.56410236,4124.35897408,4047.43589702,4124.99999973,4115.38461511,4124.23076896,4111.15384588,4119.74358947,4073.33333299,21,4
118,16,4134.23076896,4147.30769210,4212.43589737,4156.66666646,4143.33333313,4149.48717928,4138.20512800,4021.15384567,4132.82051255,4125.12820485,4124.35897408,4128.33333306,4134.23076896,4087.30769196,21,4
121,16,4132.56410229,4135.64102544,4209.74358968,4141.41025621,4141.15384595,4145.64102544,4140.76923056,4019.23076875,4149.23076903,4140.25641005,4096.41025607,4130.64102537,4146.66666646,4083.33333299,45,13
122,16,4135.38461518,4142.56410236,4227.43589737,4146.28205108,4138.97435877,4150.64102544,4140.38461518,4027.30769183,4155.89743569,4153.58974339,4119.99999973,4153.97435877,4160.38461518,4093.84615350,21,4
3,16,4148.58974339,4135.89743569,4224.99999993,4129.61538434,4134.87179460,4151.28205108,4131.02564075,3978.46153791,4140.89743569,4144.10256390,4096.15384581,4147.43589723,4154.35897415,4097.05128171,126,13
4,16,4142.69230749,4134.10256383,4218.07692301,4125.64102537,4134.99999973,4147.17948697,4132.69230742,3978.71794817,4142.05128185,4149.10256390,4104.61538434,4140.64102544,4151.92307672,4092.43589709,246,13
11,16,4135.25640998,4130.76923050,4224.23076917,4129.48717921,4134.48717921,4148.46153826,4127.82051255,3942.82051220,4130.51282024,4138.46153826,4062.69230728,4140.25641005,4144.74358954,4084.23076889,215,13
12,16,4138.20512800,4125.51282024,4207.05128199,4129.74358947,4132.43589716,4147.82051262,4126.92307665,3938.71794810,4125.64102537,4128.71794844,4072.05128171,4140.25641005,4141.66666646,4087.17948684,223,13
19,16,4141.02564082,4121.41025614,4199.35897422,4122.82051255,4139.48717928,4150.25641005,4133.20512793,3934.48717880,4133.84615357,4136.28205108,4046.92307651,4142.69230749,4147.69230749,4097.69230735,0,0
20,16,4140.76923056,4122.82051255,4202.69230763,4124.48717921,4133.97435870,4149.35897415,4134.23076896,3934.87179418,4127.94871767,4133.58974332,4064.74358933,4130.64102537,4137.43589723,4102.17948684,0,0
26,16,4136.92307672,4130.25640998,4207.69230763,4129.35897408,4133.71794844,4143.71794851,4133.20512793,3946.02564040,4144.61538441,4149.23076903,4019.35897388,4142.17948697,4159.87179467,4101.79487145,0,0
30,16,4130.76923050,4118.07692280,4178.33333320,4122.43589716,4133.71794844,4147.17948697,4132.43589716,3930.51281982,4125.89743562,4138.71794851,4021.92307644,4123.97435870,4140.51282031,4096.28205094,0,0
35,16,4132.82051255,4124.99999973,4170.64102551,4124.87179460,4140.12820492,4147.56410236,4134.99999973,3918.20512751,4130.51282024,4130.25640998,3992.56410201,4117.56410229,4138.97435877,4089.61538427,0,0
36,16,4133.84615357,4133.58974332,4182.56410243,4130.51282024,4150.51282031,4153.33333313,4137.17948697,3920.64102495,4138.33333313,4134.61538434,3961.92307630,4126.79487152,4142.69230749,4089.61538427,0,0
38,16,4120.25640998,4126.66666639,4166.15384595,4130.51282024,4141.15384595,4153.71794851,4138.58974339,3914.99999931,4131.79487152,4125.12820485,3958.58974297,4123.07692280,4133.33333306,4073.84615350,0,0
49,16,4126.79487152,4136.41025621,4173.46153833,4140.51282031,4146.66666646,4154.74358954,4125.64102537,3907.05128136,4144.61538441,4143.20512800,3913.58974290,4141.02564082,4154.87179467,4092.30769196,0,0
50,16,4126.15384588,4129.35897408,4171.66666653,4136.28205108,4151.66666646,4158.46153826,4132.05128178,3912.94871726,4138.97435877,4139.48717928,3933.84615316,4125.25640998,4146.02564082,4097.30769196,0,0
58,16,4146.41025621,4140.25641005,4180.12820499,4125.76923050,4141.53846133,4161.02564082,4138.20512800,3971.41025586,4153.07692287,4164.35897415,3984.10256355,4159.99999980,4175.64102551,4119.23076896,0,0
63,16,4118.46153819,4116.92307665,4142.17948697,4103.20512793,4128.33333306,4157.17948697,4139.23076903,4070.64102530,4134.23076896,4146.15384595,3928.58974290,4122.05128178,4138.71794851,4087.30769196,0,0
64,16,4128.07692280,4134.23076896,4159.74358954,4115.12820485,4141.28205108,4160.38461518,4142.30769210,4103.84615357,4151.92307672,4168.71794858,3914.74358905,4129.35897408,4154.48717928,4087.82051248,181,13
71,16,4094.99999966,4094.87179453,4110.25640998,4076.53846119,4093.46153812,4123.20512793,4098.07692273,4181.92307679,4105.89743562,4123.20512793,3887.94871719,4074.61538427,4110.12820485,4059.87179446,122,10
72,16,4093.20512786,4103.97435870,4117.05128178,4082.69230735,4097.69230735,4120.76923050,4095.38461504,4194.35897422,4108.46153819,4126.02564075,3870.12820430,4091.41025607,4116.66666639,4052.56410215,164,12
80,16,4084.61538427,4091.02564068,4109.87179460,4090.64102530,4089.99999966,4115.38461511,4086.28205094,4264.23076923,4091.41025607,4135.89743569,3894.35897360,4082.43589709,4101.92307658,4040.89743548,116,14
85,16,4082.30769196,4096.66666632,4118.46153819,4102.30769196,4096.66666632,4123.07692280,4098.58974325,4312.43589758,4108.84615357,4160.12820492,3878.33333257,4089.48717914,4109.87179460,4037.82051241,44,13
86,16,4078.07692273,4090.38461504,4109.48717921,4094.74358940,4086.92307658,4121.66666639,4102.17948684,4326.15384630,4103.84615357,4148.97435877,3887.69230693,4073.07692273,4102.69230742,4041.92307651,25,4
93,16,4095.38461504,4102.94871767,4117.17948691,4102.56410229,4104.23076896,4122.17948691,4107.30769203,4327.94871809,4100.76923043,4142.17948697,3843.97435814,4086.15384581,4110.12820485,4047.17948677,44,13
94,16,4096.92307658,4106.28205101,4125.12820485,4111.53846126,4112.94871767,4128.97435870,4111.66666639,4329.23076937,4108.07692280,4152.43589723,3837.94871705,4095.12820478,4118.97435870,4048.07692266,25,4
101,16,4096.02564068,4102.05128171,4118.46153819,4106.79487152,4092.17948684,4115.76923050,4105.51282024,4323.97435912,4106.53846126,4151.28205108,3825.76922987,4083.84615350,4113.07692280,4054.48717907,44,13
102,16,4092.17948684,4094.23076889,4127.94871767,4098.71794837,4107.94871767,4110.38461511,4098.33333299,4313.33333348,4104.48717921,4152.30769210,3792.17948621,4103.58974332,4121.15384588,4044.48717907,25,4
111,16,4085.89743555,4087.43589709,4113.97435870,4094.87179453,4117.30769203,4121.28205101,4097.30769196,4264.35897436,4105.12820485,4139.87179467,3843.84615302,4075.51282017,4104.48717921,4050.38461497,226,13
112,16,4079.87179453,4090.38461504,4113.58974332,4089.10256376,4109.99999973,4122.43589716,4094.87179453,4259.74358975,4110.89743562,4143.58974339,3817.43589654,4079.35897402,4106.41025614,4042.69230728,116,14
114,16,4095.89743555,4097.69230735,4109.74358947,4103.84615357,4112.56410229,4127.69230742,4102.43589709,4250.38461539,4120.12820485,4156.28205108,3805.51281954,4089.99999966,4124.35897408,4057.30769189,25,4
123,16,4115.38461511,4121.02564075,4121.66666639,4119.10256383,4114.74358947,4130.12820485,4089.35897402,4219.23076917,4132.05128178,4136.66666646,3812.43589654,4104.74358947,4138.20512800,4082.43589709,226,13
124,16,4113.33333306,4121.66666639,4118.46153819,4121.79487152,4104.99999973,4129.48717921,4088.07692273,4200.51282038,4126.92307665,4130.89743562,3823.46153756,4101.92307658,4136.02564082,4082.82051248,116,14
4,16,4127.56410229,4140.76923056,4154.10256390,4143.07692287,4154.87179467,4142.30769210,4079.87179453,4149.99999980,4152.56410236,4114.74358947,3832.43589654,4117.30769203,4151.41025621,4098.46153812,237,13
7,16,4127.56410229,4146.28205108,4147.43589723,4164.99999980,4165.51282031,4155.38461518,4084.99999966,4135.76923056,4163.20512800,4112.43589716,3827.43589654,4117.69230742,4144.23076903,4090.38461504,119,10
8,16,4120.25640998,4135.38461518,4127.82051255,4151.92307672,4163.97435877,4150.25641005,4076.41025607,4131.79487152,4154.74358954,4100.76923043,3852.69230686,4091.66666632,4132.17948691,4086.79487145,84,13
16,16,4106.28205101,4117.30769203,4119.99999973,4152.94871774,4148.71794851,4117.94871767,4022.43589695,4073.58974325,4156.28205108,4056.66666625,3840.64102481,4080.25640991,4124.35897408,4086.53846119,0,0
21,16,4101.41025607,4117.05128178,4115.38461511,4130.25640998,4135.25640998,4104.48717921,3962.94871733,4013.58974311,4132.43589716,4010.38461490,3862.17948635,4070.38461504,4099.48717914,4073.33333299,0,0
22,16,4091.02564068,4111.28205101,4116.53846126,4122.56410229,4126.41025614,4084.23076889,3939.61538399,3987.94871740,4123.97435870,3998.33333278,3846.02564020,4065.89743548,4087.82051248,4052.94871754,0,0
29,16,4124.74358947,4135.89743569,4161.79487159,4157.94871774,4162.82051262,4126.53846126,3946.02564040,4000.25640970,4158.07692287,4012.17948670,3886.79487103,4095.89743555,4121.66666639,4095.25640991,0,0
30,16,4111.02564075,4132.30769203,4159.35897415,4151.28205108,4171.15384602,4115.38461511,3923.20512751,3984.48717894,4154.48717928,4010.12820465,3858.97435814,4096.28205094,4121.15384588,4084.35897402,0,0
38,16,4089.74358940,4116.53846126,4130.25640998,4151.92307672,4151.41025621,4107.56410229,3877.43589668,3917.82051213,4121.41025614,3959.74358912,3846.15384532,4055.64102523,4075.76923043,4052.30769189,0,0
41,16,4108.20512793,4126.28205101,4143.33333313,4168.58974345,4182.69230756,4135.25640998,3887.94871719,3953.20512758,4140.12820492,3973.20512765,3839.74358884,4063.07692266,4099.35897402,4078.20512786,0,0
42,16,4111.92307665,4131.28205101,4149.35897415,4171.02564089,4179.99999986,4138.84615364,3892.30769155,3961.53846092,4148.33333313,3982.17948663,3832.82051192,4072.56410222,4110.12820485,4082.05128171,0,0
50,16,4109.61538434,4129.99999973,4160.64102544,4166.53846133,4180.38461525,4147.43589723,3874.61538385,4016.79487131,4153.71794851,3983.46153791,3808.46153756,4072.56410222,4104.74358947,4077.82051248,0,0
55,16,4104.99999973,4117.69230742,4156.15384595,4148.58974339,4164.48717928,4146.92307672,3874.61538385,4016.28205080,4138.84615364,3961.15384553,3817.05128115,4055.25640984,4089.99999966,4071.41025607,0,0
56,16,4109.35897408,4128.97435870,4159.74358954,4162.82051262,4153.71794851,4150.25641005,3875.76923001,4012.43589695,4135.25640998,3958.33333271,3833.07692218,4063.20512779,4089.48717914,4074.74358940,0,0
62,16,4108.58974332,4136.41025621,4169.35897422,4171.41025628,4174.74358961,4157.05128185,3882.94871719,4026.53846106,4143.20512800,3958.07692246,3907.82051213,4065.25640984,4093.07692273,4061.92307651,0,0
65,16,4095.51282017,4128.58974332,4173.71794858,4158.46153826,4162.30769210,4144.48717928,3859.99999917,4019.35897388,4136.79487159,3954.23076861,3962.94871733,4062.43589702,4092.69230735,4054.48717907,235,13
66,16,4101.41025607,4130.38461511,4174.87179474,4161.79487159,4158.58974339,4144.35897415,3865.76922994,4031.92307644,4144.48717928,3960.25640963,3973.20512765,4069.48717907,4095.38461504,4064.23076882,181,13
74,16,4143.46153826,4163.84615364,4219.35897429,4189.10256397,4194.99999986,4176.79487166,3892.43589668,4087.17948684,4179.87179474,3986.15384560,4085.51282017,4101.15384581,4131.15384588,4108.07692280,39,4
77,16,4125.64102537,4147.69230749,4207.17948711,4176.66666653,4169.61538448,4153.71794851,3856.92307609,4086.02564068,4155.89743569,3967.43589681,4073.07692273,4099.74358940,4119.87179460,4099.10256376,38,13
78,16,4131.79487152,4156.02564082,4216.92307686,4183.84615371,4180.25641012,4156.02564082,3851.66666584,4099.10256376,4167.17948697,3985.64102509,4072.43589709,4113.84615357,4134.99999973,4094.10256376,39,4
86,16,4137.56410236,4188.46153833,4239.48717949,4181.28205115,4195.89743576,4150.64102544,3830.64102474,4214.23076917,4157.56410236,3975.51281996,4117.17948691,4119.23076896,4129.23076896,4095.89743555,39,4
91,16,4127.05128178,4179.61538448,4235.00000000,4169.99999986,4190.51282038,4146.66666646,3820.89743500,4268.33333341,4147.69230749,3960.12820451,4214.10256404,4107.56410229,4121.15384588,4082.94871761,226,13
92,16,4126.53846126,4169.87179474,4224.87179481,4165.64102544,4181.92307679,4140.38461518,3813.97435807,4275.51282059,4144.23076903,3953.46153784,4238.20512821,4099.87179453,4115.38461511,4084.48717914,228,13
96,16,4115.64102537,4239.10256411,4230.89743583,4163.58974339,4185.64102551,4146.02564082,3807.43589654,4307.94871809,4158.20512800,3956.79487117,4265.51282052,4109.35897408,4116.53846126,4080.89743555,228,13
105,16,4131.41025614,4315.00000014,4253.46153847,4174.61538448,4190.25641012,4177.17948704,3824.35897346,4313.97435912,4169.10256397,3966.79487117,4254.23076923,4115.89743562,4135.89743569,4102.43589709,38,13
106,16,4145.25641005,4331.53846168,4275.64102571,4191.28205115,4209.74358968,4185.64102551,3830.51281961,4325.89743604,4188.20512807,3988.58974304,4231.15384609,4141.41025621,4153.84615364,4117.82051255,39,4
113,16,4124.48717921,4294.74358982,4256.28205129,4171.02564089,4174.23076910,4170.76923063,3826.53846064,4306.15384630,4154.35897415,3977.56410201,4222.17948711,4127.05128178,4126.79487152,4096.79487145,38,13
114,16,4128.97435870,4297.05128212,4257.56410257,4173.71794858,4176.15384602,4169.48717935,3828.20512731,4310.38461553,4157.43589723,3983.20512765,4243.07692308,4126.28205101,4130.12820485,4106.15384588,39,4
118,16,4118.71794844,4275.64102571,4247.05128206,4158.71794851,4162.69230749,4161.79487159,3831.02564013,4305.25641040,4143.33333313,3975.25640970,4232.69230763,4119.23076896,4111.15384588,4086.15384581,39,4
125,16,4147.17948697,4276.66666674,4263.20512821,4174.74358961,4161.66666646,4180.38461525,3876.41025565,4323.46153860,4156.92307672,4008.07692259,4289.10256418,4135.89743569,4127.56410229,4113.84615357,38,13
126,16,4154.35897415,4288.07692315,4281.53846161,4179.99999986,4175.12820499,4176.15384602,3874.61538385,4326.66666681,4163.71794851,4019.35897388,4277.17948725,4151.66666646,4133.20512793,4121.79487152,39,4
2,16,4169.87179474,4298.58974366,4295.12820520,4194.23076910,4203.71794865,4197.82051269,3915.25640957,4338.97435919,4186.92307679,4046.53846113,4332.69230790,4157.56410236,4149.10256390,4139.87179467,166,13
11,16,4110.38461511,4223.07692301,4233.33333327,4140.25641005,4146.41025621,4152.05128185,3909.48717880,4254.10256411,4139.23076903,4032.05128157,4377.17948746,4123.46153819,4111.02564075,4083.58974325,219,13
12,16,4111.15384588,4212.30769224,4226.66666660,4136.79487159,4132.30769203,4150.51282031,3907.69230700,4243.84615385,4126.66666639,4019.23076875,4401.53846189,4098.84615350,4093.20512786,4078.84615350,224,13
14,16,4104.23076896,4213.07692301,4231.92307686,4133.97435870,4135.12820485,4147.17948697,3906.53846085,4230.51282045,4124.23076896,4023.58974311,4373.58974387,4098.33333299,4090.38461504,4080.89743555,36,4
23,16,4127.69230742,4222.56410250,4267.30769238,4149.61538441,4148.46153826,4155.76923056,3947.17948656,4193.84615371,4134.87179460,4049.99999959,4418.07692343,4134.87179460,4112.17948691,4092.94871761,0,0
24,16,4141.28205108,4235.89743590,4278.97435905,4159.74358954,4149.48717928,4158.33333313,3956.79487117,4194.10256397,4135.76923056,4057.56410215,4413.84615420,4144.99999980,4115.64102537,4098.58974325,0,0
31,16,4132.82051255,4213.07692301,4259.87179488,4141.02564082,4159.61538441,4162.30769210,4001.79487124,4224.10256404,4148.71794851,4080.38461504,4430.12820548,4144.23076903,4118.46153819,4090.64102530,0,0
32,16,4126.53846126,4204.10256404,4251.66666667,4131.53846126,4138.20512800,4146.79487159,3998.84615329,4219.35897429,4131.53846126,4070.64102530,4459.35897478,4130.12820485,4105.89743562,4093.46153812,0,0
36,16,4152.69230749,4232.94871788,4292.82051289,4158.84615364,4158.58974339,4157.94871774,4020.12820465,4243.58974359,4149.87179467,4104.48717921,4462.56410298,4177.30769217,4145.89743569,4119.23076896,0,0
45,16,4139.87179467,4207.94871788,4270.00000007,4141.53846133,4138.71794851,4147.43589723,4041.28205087,4248.97435898,4150.12820492,4116.41025614,4491.41025690,4164.48717928,4138.71794851,4117.56410229,0,0
46,16,4141.92307672,4203.20512814,4263.33333334,4131.41025614,4150.76923056,4153.58974339,4052.69230728,4241.66666667,4157.30769210,4122.82051255,4480.64102613,4169.99999986,4152.17948697,4117.05128178,0,0
48,16,4159.23076903,4222.69230763,4279.23076930,4161.28205108,4157.17948697,4165.89743569,4071.92307658,4238.07692308,4155.76923056,4124.10256383,4504.87179543,4158.07692287,4141.02564082,4124.61538434,0,0
57,16,4163.46153826,4236.53846154,4256.53846154,4217.94871788,4172.82051269,4153.46153826,4079.23076889,4190.25641012,4125.38461511,4094.35897402,4456.02564145,4128.07692280,4092.94871761,4107.82051255,0,0
58,16,4165.38461518,4234.23076923,4255.76923077,4216.66666660,4169.35897422,4157.56410236,4085.25640991,4198.20512807,4123.58974332,4092.30769196,4462.56410298,4122.69230742,4093.20512786,4109.35897408,0,0
60,16,4143.20512800,4212.94871788,4235.38461539,4191.41025628,4142.30769210,4147.82051262,4083.20512786,4194.48717935,4111.79487152,4068.20512779,4420.12820548,4104.74358947,4074.99999966,4091.53846119,0,0
66,16,4147.17948697,4216.79487173,4245.76923077,4196.66666653,4154.74358954,4168.20512807,4103.84615357,4187.43589730,4136.15384595,4102.82051255,4355.51282073,4123.71794844,4098.33333299,4092.94871761,217,12
69,16,4155.64102544,4220.51282045,4262.05128206,4204.23076917,4163.20512800,4172.17948704,4114.23076896,4170.38461525,4132.30769203,4111.15384588,4364.74358996,4133.33333306,4114.87179460,4106.28205101,118,12
78,16,4156.15384595,4204.10256404,4237.17948718,4188.71794858,4147.56410236,4157.94871774,4134.48717921,4130.25640998,4129.99999973,4115.89743562,4401.79487215,4108.71794844,4100.12820478,4095.64102530,247,3
83,16,4133.33333306,4178.58974345,4207.43589737,4173.58974345,4133.46153819,4138.46153826,4124.87179460,4135.64102544,4112.05128178,4098.33333299,4396.28205156,4092.69230735,4083.46153812,4079.99999966,220,13
84,16,4149.74358954,4202.17948711,4236.15384616,4189.74358961,4152.82051262,4152.17948697,4146.79487159,4162.43589723,4134.74358947,4125.12820485,4384.10256438,4120.12820485,4108.71794844,4098.97435863,220,13
91,16,4128.84615357,4156.66666646,4190.38461525,4152.05128185,4121.28205101,4144.10256390,4136.15384595,4164.10256390,4127.82051255,4118.33333306,4372.69230797,4107.30769203,4100.25640991,4083.84615350,220,13
92,16,4123.20512793,4154.87179467,4190.89743576,4149.35897415,4112.82051255,4137.30769210,4135.89743569,4158.58974339,4130.38461511,4124.87179460,4369.48717977,4110.12820485,4102.94871767,4076.41025607,220,13
100,16,4155.12820492,4172.17948704,4204.61538455,4157.94871774,4133.33333306,4158.58974339,4168.20512807,4155.12820492,4135.38461518,4129.74358947,4345.51282073,4122.43589716,4113.58974332,4102.05128171,220,13
103,16,4147.17948697,4161.66666646,4193.97435884,4156.02564082,4134.23076896,4149.48717928,4163.84615364,4142.17948697,4126.15384588,4123.71794844,4363.58974380,4111.53846126,4105.38461511,4098.20512786,220,13
104,16,4147.17948697,4164.61538441,4199.23076910,4155.12820492,4137.69230749,4150.25641005,4164.87179467,4137.56410236,4129.10256383,4128.20512793,4353.71794893,4115.12820485,4110.25640998,4095.12820478,220,13
111,16,4151.53846133,4154.48717928,4183.84615371,4162.69230749,4141.53846133,4153.33333313,4192.56410243,4143.58974339,4134.87179460,4142.30769210,4345.00000021,4105.25640998,4112.30769203,4101.92307658,220,13
112,16,4140.38461518,4152.17948697,4181.15384602,4154.10256390,4128.84615357,4144.23076903,4175.76923063,4132.94871767,4139.23076903,4139.74358954,4334.61538483,4112.56410229,4115.64102537,4091.02564068,220,13
114,16,4165.76923056,4168.71794858,4204.10256404,4174.87179474,4152.69230749,4165.12820492,4202.30769224,4154.99999980,4159.10256390,4169.61538448,4359.10256431,4128.07692280,4136.41025621,4113.71794844,247,3
123,16,4173.58974345,4167.43589723,4209.87179481,4169.48717935,4148.33333313,4148.84615364,4206.15384609,4132.17948691,4156.41025621,4179.48717935,4342.82051303,4142.43589723,4142.69230749,4114.10256383,220,13
124,16,4172.05128192,4168.71794858,4209.61538455,4171.15384602,4148.97435877,4160.51282031,4207.17948711,4132.05128178,4157.43589723,4183.33333320,4343.46153867,4145.12820492,4147.69230749,4114.87179460,220,13
127,16,4156.66666646,4161.02564082,4200.89743576,4167.94871774,4149.23076903,4156.66666646,4207.05128199,4115.25640998,4140.25641005,4176.15384602,4305.89743604,4138.71794851,4133.58974332,4093.84615350,57,0
8,16,4172.43589730,4151.53846133,4205.12820506,4158.58974339,4158.20512800,4169.87179474,4221.92307686,4112.05128178,4149.35897415,4186.53846140,4287.56410264,4153.97435877,4151.02564082,4118.46153819,119,13
11,16,4148.46153826,4129.61538434,4175.64102551,4141.66666646,4146.41025621,4151.79487159,4215.64102558,4098.58974325,4131.02564075,4170.25641012,4273.97435905,4124.61538434,4122.17948691,4095.51282017,225,13
12,16,4147.17948697,4134.61538434,4179.23076910,4145.12820492,4142.05128185,4150.76923056,4208.33333327,4095.25640991,4129.35897408,4166.66666646,4247.43589744,4130.64102537,4127.30769203,4092.43589709,229,13
20,16,4169.23076910,4155.12820492,4207.05128199,4167.43589723,4171.79487166,4170.51282038,4220.25641019,4086.41025607,4151.53846133,4198.07692294,4227.69230763,4163.46153826,4161.92307672,4118.46153819,0,0
25,16,4167.30769210,4149.23076903,4198.33333320,4157.30769210,4159.74358954,4161.53846133,4228.71794865,4089.10256376,4143.58974339,4193.58974345,4189.87179474,4161.92307672,4157.69230749,4112.82051255,0,0
26,16,4171.02564089,4144.61538441,4190.64102551,4150.64102544,4153.58974339,4164.61538441,4232.69230763,4089.61538427,4136.53846133,4185.76923063,4190.76923063,4144.10256390,4148.46153826,4118.97435870,0,0
30,16,4169.74358961,4143.46153826,4201.02564096,4143.58974339,4163.71794851,4163.84615364,4243.07692308,4098.07692273,4138.97435877,4191.66666653,4140.89743569,4169.10256397,4158.71794851,4114.87179460,0,0
39,16,4151.28205108,4124.23076896,4189.99999986,4127.69230742,4146.15384595,4151.79487159,4242.17948718,4136.28205108,4129.61538434,4177.82051269,4044.99999959,4155.12820492,4139.10256390,4096.02564068,0,0
40,16,4159.61538441,4139.10256390,4199.10256397,4138.07692287,4151.92307672,4156.53846133,4248.97435898,4148.46153826,4139.61538441,4190.38461525,4038.20512779,4165.12820492,4153.58974339,4100.51282017,0,0
42,16,4154.10256390,4140.12820492,4202.43589737,4131.28205101,4158.46153826,4155.38461518,4236.53846154,4144.10256390,4135.51282031,4191.41025628,4038.20512779,4159.35897415,4147.05128185,4104.48717921,0,0
51,16,4162.17948697,4125.76923050,4181.15384602,4111.66666639,4146.79487159,4153.71794851,4247.43589744,4157.69230749,4120.89743562,4178.71794858,3987.43589688,4150.38461518,4150.38461518,4113.46153819,0,0
52,16,4159.87179467,4125.64102537,4184.10256397,4108.97435870,4142.05128185,4150.38461518,4243.07692308,4149.10256390,4114.99999973,4174.23076910,3969.99999938,4144.99999980,4145.89743569,4105.64102537,0,0
59,16,4148.97435877,4123.46153819,4182.69230756,4114.87179460,4141.66666646,4154.35897415,4249.48717949,4182.82051269,4129.61538434,4174.10256397,3935.64102495,4142.17948697,4134.87179460,4097.30769196,0,0
60,16,4143.33333313,4126.28205101,4179.61538448,4112.69230742,4139.74358954,4152.69230749,4245.51282052,4181.66666653,4137.43589723,4180.12820499,3924.99999931,4146.92307672,4142.17948697,4091.79487145,0,0
66,16,4170.51282038,4130.38461511,4171.92307679,4115.38461511,4134.61538434,4145.89743569,4239.10256411,4180.64102551,4130.89743562,4184.48717935,3892.94871719,4147.30769210,4151.15384595,4117.56410229,164,13
11,16,4157.69230749,4112.82051255,4134.10256383,4130.89743562,4122.69230742,4122.43589716,4230.25641019,4091.15384581,4142.56410236,4169.87179474,4286.41025648,4150.64102544,4148.07692287,4111.66666639,213,13
12,16,4161.41025621,4114.10256383,4136.02564082,4131.28205101,4112.56410229,4126.28205101,4223.33333327,4089.74358940,4140.76923056,4164.35897415,4287.17948725,4151.02564082,4149.99999980,4113.71794844,217,13
83,16,4135.64102544,4109.35897408,4125.12820485,4144.74358954,4128.71794844,4108.07692280,4197.17948704,4093.84615350,4129.74358947,4140.38461518,4318.33333348,4132.30769203,4121.79487152,4079.99999966,218,13
84,16,4131.28205101,4114.61538434,4128.58974332,4148.07692287,4133.71794844,4111.15384588,4195.76923063,4089.61538427,4138.97435877,4153.07692287,4311.66666681,4148.84615364,4133.46153819,4079.48717914,221,13
87,16,4135.25640998,4108.97435870,4126.53846126,4139.48717928,4140.12820492,4114.61538434,4195.12820499,4070.89743555,4129.87179460,4155.89743569,4314.23076937,4144.23076903,4132.94871767,4083.97435863,218,13
96,16,4136.92307672,4106.02564075,4109.35897408,4132.56410229,4131.66666639,4112.69230742,4198.20512807,4067.94871754,4149.48717928,4156.28205108,4313.07692322,4136.28205108,4133.46153819,4081.02564068,221,13
100,16,4133.20512793,4104.35897408,4112.69230742,4129.48717921,4127.17948691,4105.64102537,4188.58974345,4048.84615343,4138.58974339,4151.02564082,4309.74358989,4143.84615364,4129.35897408,4081.53846119,221,13
105,16,4141.79487159,4106.28205101,4108.71794844,4127.82051255,4120.38461511,4121.79487152,4203.07692301,4070.51282017,4151.41025621,4161.15384595,4300.00000014,4146.02564082,4140.51282031,4099.35897402,43,13
106,16,4141.15384595,4108.84615357,4107.56410229,4126.53846126,4130.89743562,4123.46153819,4202.69230763,4062.30769189,4149.10256390,4159.99999980,4294.61538469,4140.12820492,4135.76923056,4094.35897402,13,4
109,16,4142.56410236,4109.48717921,4106.79487152,4119.48717921,4117.56410229,4117.82051255,4188.71794858,4053.33333292,4140.12820492,4147.17948697,4272.69230777,4137.43589723,4134.87179460,4090.25640991,43,13
118,16,4126.92307665,4095.51282017,4105.64102537,4103.58974332,4112.17948691,4106.53846126,4163.58974339,4037.17948677,4118.58974332,4141.02564082,4266.15384616,4133.20512793,4128.07692280,4079.99999966,13,4
123,16,4123.97435870,4093.71794837,4099.48717914,4107.17948691,4111.79487152,4110.76923050,4178.07692294,4042.82051241,4129.87179460,4144.23076903,4250.89743590,4131.02564075,4127.56410229,4083.07692273,218,13
124,16,4091.79487145,4069.10256369,4076.92307658,4076.53846119,4080.38461504,4078.58974325,4148.07692287,4019.23076875,4101.41025607,4116.28205101,4217.94871788,4104.87179460,4103.20512793,4045.76923036,221,13
2,16,4144.23076903,4110.12820485,4119.87179460,4120.64102537,4125.76923050,4110.76923050,4186.41025628,4066.53846113,4159.87179467,4176.53846140,4240.64102564,4153.97435877,4160.51282031,4095.89743555,197,13
7,16,4145.76923056,4115.89743562,4114.61538434,4115.64102537,4127.69230742,4115.38461511,4175.25641012,4043.33333292,4144.10256390,4171.79487166,4234.74358975,4149.48717928,4158.20512800,4098.58974325,134,10
8,16,4133.71794844,4104.23076896,4107.69230742,4108.71794844,4116.41025614,4114.35897408,4177.17948704,4038.07692266,4131.92307665,4156.66666646,4241.02564103,4131.53846126,4142.56410236,4091.53846119,129,13
14,16,4127.69230742,4104.10256383,4097.56410222,4100.76923043,4112.94871767,4099.10256376,4177.05128192,4023.58974311,4134.48717921,4151.92307672,4214.87179481,4124.87179460,4129.10256383,4078.33333299,246,3
17,16,4134.61538434,4110.76923050,4115.64102537,4112.69230742,4110.64102537,4100.76923043,4172.17948704,4031.53846106,4145.51282031,4166.15384595,4217.30769224,4143.97435877,4143.46153826,4088.97435863,0,0
18,16,4134.61538434,4103.07692280,4104.99999973,4109.35897408,4095.89743555,4101.28205094,4171.41025628,4029.23076875,4143.71794851,4167.43589723,4232.05128199,4133.46153819,4137.30769210,4089.48717914,0,0
26,16,4141.15384595,4110.38461511,4114.61538434,4120.25640998,4124.61538434,4111.53846126,4201.15384609,4036.28205080,4145.76923056,4167.82051262,4243.33333334,4143.33333313,4138.46153826,4093.46153812,0,0
31,16,4136.41025621,4111.28205101,4116.02564075,4128.20512793,4127.05128178,4107.05128178,4182.30769217,4009.74358926,4123.84615357,4139.48717928,4247.43589744,4144.10256390,4134.23076896,4093.97435863,0,0
32,16,4132.82051255,4114.35897408,4111.41025614,4129.23076896,4128.07692280,4106.53846126,4187.69230756,4004.10256362,4130.51282024,4141.79487159,4230.64102558,4148.97435877,4133.33333306,4091.79487145,0,0
39,16,4138.58974339,4131.79487152,4107.43589716,4159.10256390,4145.89743569,4127.30769203,4194.61538448,3998.07692252,4143.20512800,4147.82051262,4225.25641019,4149.87179467,4137.05128185,4094.87179453,0,0
40,16,4139.61538441,4128.71794844,4106.53846126,4157.17948697,4151.79487159,4125.38461511,4192.56410243,3997.17948663,4132.05128178,4140.25641005,4236.15384616,4141.02564082,4132.30769203,4099.10256376,0,0
48,16,4143.58974339,4118.71794844,4094.10256376,4142.94871774,4131.66666639,4119.48717921,4178.58974345,4003.20512765,4143.71794851,4144.74358954,4248.84615385,4137.69230749,4132.56410229,4098.46153812,0,0
51,16,4146.79487159,4121.79487152,4100.25640991,4155.51282031,4132.17948691,4111.66666639,4165.76923056,3991.53846099,4127.56410229,4141.79487159,4258.84615385,4135.64102544,4131.15384588,4096.28205094,0,0
52,16,4136.41025621,4124.87179460,4095.76923043,4148.46153826,4133.20512793,4108.58974332,4165.64102544,3982.05128150,4125.64102537,4141.79487159,4233.58974352,4134.48717921,4123.84615357,4081.02564068,0,0
60,16,4144.35897415,4124.61538434,4090.89743555,4146.41025621,4131.92307665,4115.25640998,4166.92307672,3986.66666611,4127.56410229,4141.79487159,4253.97435898,4145.38461518,4131.66666639,4096.15384581,0,0
63,16,4149.74358954,4127.30769203,4092.69230735,4154.74358954,4129.23076896,4110.12820485,4170.64102551,3988.84615329,4126.15384588,4137.43589723,4245.51282052,4137.30769210,4124.61538434,4105.25640998,0,0
64,16,4145.89743569,4124.99999973,4093.71794837,4148.20512800,4121.15384588,4115.64102537,4172.69230756,3987.82051227,4129.23076896,4141.79487159,4243.20512821,4137.30769210,4124.61538434,4098.97435863,179,13
72,16,4138.46153826,4121.92307665,4093.33333299,4147.82051262,4134.10256383,4110.25640998,4169.35897422,3997.43589688,4133.84615357,4150.89743569,4228.07692301,4133.33333306,4128.07692280,4088.84615350,121,13
77,16,4124.99999973,4115.51282024,4067.69230728,4131.53846126,4126.28205101,4118.33333306,4165.76923056,3993.97435842,4136.92307672,4150.38461518,4204.87179481,4119.48717921,4120.25640998,4081.53846119,145,12
78,16,4122.56410229,4110.25640998,4059.61538420,4130.64102537,4118.07692280,4113.58974332,4163.58974339,3994.48717894,4138.71794851,4147.94871774,4196.15384602,4119.74358947,4118.84615357,4078.20512786,254,3
85,16,4126.28205101,4116.66666639,4064.10256369,4135.76923056,4110.89743562,4102.30769196,4142.69230749,3990.25640970,4113.71794844,4138.71794851,4177.05128192,4128.20512793,4122.94871767,4081.41025607,145,12
86,16,4133.33333306,4108.71794844,4066.53846113,4131.28205101,4108.46153819,4097.69230735,4141.15384595,3998.58974304,4112.56410229,4135.12820485,4198.58974345,4122.69230742,4117.56410229,4084.61538427,254,3
94,16,4120.38461511,4104.48717921,4047.30769189,4125.89743562,4115.76923050,4124.87179460,4166.41025621,4010.76923029,4112.30769203,4136.02564082,4153.84615364,4123.71794844,4121.28205101,4086.66666632,254,3
97,16,4125.89743562,4119.10256383,4070.38461504,4138.46153826,4121.28205101,4121.15384588,4160.38461518,4028.97435849,4134.87179460,4157.94871774,4156.66666646,4133.46153819,4128.71794844,4085.76923043,145,12
98,16,4133.97435870,4125.51282024,4073.46153812,4141.92307672,4121.79487152,4125.76923050,4166.79487159,4027.17948670,4136.28205108,4166.66666646,4140.25641005,4142.43589723,4135.38461518,4090.25640991,254,3
106,16,4136.02564082,4113.46153819,4067.43589702,4121.28205101,4119.23076896,4129.23076896,4167.05128185,4026.02564054,4136.02564082,4162.30769210,4129.61538434,4138.84615364,4139.48717928,4101.15384581,254,3
109,16,4122.43589716,4099.74358940,4053.84615343,4113.07692280,4110.76923050,4136.15384595,4175.64102551,4028.46153798,4132.82051255,4148.97435877,4097.43589709,4126.15384588,4117.17948691,4080.12820478,145,12
110,16,4115.89743562,4107.69230742,4060.12820472,4115.89743562,4119.10256383,4126.66666639,4168.84615371,4020.12820465,4131.53846126,4158.97435877,4083.58974325,4136.66666646,4124.48717921,4079.48717914,254,3
117,16,4138.33333313,4104.87179460,4074.74358940,4119.35897408,4114.74358947,4130.89743562,4167.94871774,4043.84615343,4140.64102544,4175.76923063,4070.38461504,4135.89743569,4142.05128185,4097.30769196,145,12
118,16,4134.99999973,4108.46153819,4071.53846119,4117.94871767,4108.58974332,4123.71794844,4155.51282031,4029.99999952,4132.69230742,4167.94871774,4045.12820472,4137.17948697,4142.05128185,4091.02564068,254,3