title: 1488_001 , recorded: 14.10.19 14.54.22, timestamp started:2017-11-21T16:17:43.558438-08:00            , sampling:128, subject:, labels:COUNTER INTERPOLATED F3 FC5 AF3 F7 T7 P7 O1 O2 P8 T8 F8 AF4 FC6 F4 RAW_CQ GYROX GYROY MARKER MARKER_HARDWARE SYNC TIME_STAMP_s TIME_STAMP_ms CQ_AF3 CQ_F7 CQ_F3 CQ_FC5 CQ_T7 CQ_P7 CQ_O1 CQ_O2 CQ_P8 CQ_T8 CQ_FC6 CQ_F4 CQ_F8 CQ_AF4 CQ_CMS CQ_DRL, , chan:40, samples:3667, units:emotiv
17,16,4137.56410236,4145.64102544,4169.61538448,4146.28205108,4141.53846133,4116.15384588,4137.69230749,4102.30769196,4117.82051255,4106.41025614,4142.82051262,4157.69230749,4117.94871767,4093.58974325,0,0
18,16,4134.99999973,4147.30769210,4189.74358961,4156.66666646,4140.38461518,4113.46153819,4141.02564082,4107.94871767,4122.94871767,4116.02564075,4157.69230749,4154.61538441,4127.82051255,4089.99999966,0,0
19,16,4139.99999980,4158.71794851,4258.71794872,4172.94871781,4140.25641005,4109.99999973,4136.79487159,4105.76923050,4126.02564075,4113.07692280,4170.64102551,4222.56410250,4141.28205108,4100.25640991,0,0
20,16,4129.10256383,4140.12820492,4166.92307672,4140.64102544,4132.43589716,4120.25640998,4140.89743569,4109.23076896,4130.25640998,4114.10256383,4170.89743576,4185.12820499,4141.15384595,4091.79487145,0,0
21,16,4132.17948691,4141.66666646,4211.28205122,4140.51282031,4128.58974332,4117.05128178,4135.51282031,4107.05128178,4131.53846126,4128.84615357,4176.92307679,4244.87179488,4161.53846133,4102.94871767,0,0
22,16,4128.84615357,4142.56410236,4245.12820513,4144.61538441,4133.07692280,4114.61538434,4130.38461511,4104.61538434,4129.74358947,4131.79487152,4184.10256397,4262.69230770,4170.25641012,4107.05128178,0,0
23,16,4127.17948691,4133.71794844,4232.56410250,4133.33333306,4135.38461518,4118.58974332,4130.12820485,4105.25640998,4132.30769203,4132.94871767,4187.82051269,4238.58974359,4171.15384602,4102.30769196,0,0
24,16,4146.92307672,4140.64102544,4293.07692315,4137.82051262,4133.20512793,4115.25640998,4128.84615357,4106.79487152,4140.76923056,4147.56410236,4198.84615371,4314.48717963,4195.25641012,4121.53846126,0,0
25,16,4141.28205108,4135.12820485,4221.41025634,4127.05128178,4133.07692280,4117.43589716,4135.12820485,4109.48717921,4143.46153826,4156.66666646,4209.61538455,4288.46153853,4205.51282045,4122.94871767,0,0
26,16,4141.79487159,4143.46153826,4277.30769238,4140.51282031,4130.25640998,4111.41025614,4130.38461511,4103.58974332,4138.20512800,4164.48717928,4216.02564096,4334.48717970,4223.20512814,4133.46153819,0,0
27,16,4143.58974339,4136.79487159,4311.28205142,4126.28205101,4119.23076896,4107.82051255,4127.94871767,4105.38461511,4140.38461518,4172.69230756,4214.99999993,4351.02564124,4224.87179481,4134.35897408,0,0
28,16,4139.61538441,4121.28205101,4270.00000007,4101.41025607,4120.89743562,4115.12820485,4133.20512793,4115.76923050,4146.15384595,4176.41025628,4218.07692301,4318.46153860,4214.74358968,4126.41025614,0,0
29,16,4154.87179467,4135.64102544,4331.53846168,4119.99999973,4130.51282024,4118.33333306,4134.10256383,4119.87179460,4148.20512800,4187.30769217,4233.46153840,4390.00000028,4235.12820513,4149.74358954,0,0
30,16,4152.56410236,4127.43589716,4257.05128206,4103.20512793,4123.84615357,4118.84615357,4139.48717928,4124.23076896,4153.33333313,4195.51282038,4239.48717949,4347.82051303,4244.23076923,4153.84615364,0,0
31,16,4150.76923056,4116.92307665,4262.30769231,4086.41025607,4118.58974332,4109.48717921,4138.58974339,4117.43589716,4154.99999980,4192.56410243,4235.89743590,4354.35897457,4248.46153847,4156.02564082,0,0
32,16,4152.30769210,4110.51282024,4273.97435905,4075.76923043,4122.05128178,4112.05128178,4142.43589723,4107.56410229,4153.20512800,4187.69230756,4228.97435891,4344.35897457,4240.51282052,4156.79487159,0,0
33,16,4150.51282031,4109.87179460,4230.51282045,4072.56410222,4120.38461511,4116.79487152,4148.20512800,4106.53846126,4157.43589723,4188.33333320,4216.79487173,4286.79487187,4230.12820506,4147.17948697,0,0
34,16,4157.17948697,4124.61538434,4287.94871802,4100.64102530,4119.74358947,4106.15384588,4140.51282031,4106.41025614,4158.07692287,4186.53846140,4208.97435891,4342.43589765,4237.43589744,4150.12820492,0,0
35,16,4143.71794851,4110.89743562,4180.25641012,4085.25640991,4126.79487152,4115.38461511,4146.02564082,4112.43589716,4157.94871774,4178.58974345,4198.71794858,4258.84615385,4217.82051275,4136.53846133,0,0
36,16,4145.25641005,4115.12820485,4155.89743569,4079.99999966,4131.15384588,4119.74358947,4150.38461518,4109.74358947,4154.74358954,4175.25641012,4182.82051269,4215.51282045,4205.51282045,4136.66666646,0,0
37,16,4147.56410236,4121.66666639,4182.05128192,4087.05128171,4128.33333306,4110.64102537,4143.46153826,4097.05128171,4138.33333313,4158.84615364,4164.48717928,4212.17948711,4190.64102551,4132.30769203,0,0
38,16,4137.43589723,4110.25640998,4116.92307665,4074.74358940,4125.89743562,4113.20512793,4144.10256390,4090.12820478,4131.28205101,4141.15384595,4149.61538441,4144.99999980,4169.61538448,4113.20512793,0,0
39,16,4152.69230749,4129.48717921,4166.15384595,4096.15384581,4127.05128178,4118.20512793,4148.07692287,4089.23076889,4141.41025621,4152.69230749,4152.94871774,4188.20512807,4185.25641012,4126.53846126,0,0
40,16,4146.66666646,4124.48717921,4092.69230735,4089.10256376,4132.17948691,4123.84615357,4151.28205108,4092.05128171,4142.05128185,4155.76923056,4151.28205108,4128.33333306,4176.28205115,4116.92307665,0,0
41,16,4136.92307672,4112.56410229,4074.61538427,4079.74358940,4139.87179467,4122.17948691,4148.33333313,4085.51282017,4128.46153819,4141.41025621,4136.66666646,4100.25640991,4158.84615364,4101.02564068,0,0
42,16,4143.33333313,4117.30769203,4115.12820485,4083.07692273,4142.43589723,4124.10256383,4150.25641005,4081.79487145,4127.17948691,4139.61538441,4124.10256383,4116.53846126,4156.53846133,4104.48717921,0,0
43,16,4136.66666646,4115.51282024,4062.05128164,4071.15384581,4139.61538441,4130.12820485,4153.33333313,4086.66666632,4131.02564075,4143.97435877,4111.02564075,4059.99999959,4147.43589723,4097.94871761,0,0
44,16,4136.15384595,4122.82051255,4111.41025614,4082.94871761,4138.97435877,4123.97435870,4146.79487159,4084.99999966,4131.79487152,4147.30769210,4113.46153819,4113.84615357,4156.15384595,4101.92307658,0,0
45,16,4128.97435870,4110.38461511,4042.43589702,4068.71794830,4138.84615364,4132.30769203,4155.25641005,4086.53846119,4143.20512800,4152.17948697,4120.51282024,4073.84615350,4152.69230749,4092.82051248,0,0
46,16,4128.20512793,4108.33333306,4020.12820465,4064.48717907,4136.53846133,4137.56410236,4155.89743569,4082.05128171,4143.46153826,4153.46153826,4112.56410229,4041.53846113,4146.41025621,4091.28205094,0,0
47,16,4131.53846126,4115.76923050,4071.79487145,4070.76923043,4139.48717928,4132.94871767,4150.51282031,4075.76923043,4132.56410229,4148.84615364,4102.30769196,4065.51282010,4148.07692287,4098.33333299,0,0
48,16,4121.79487152,4102.05128171,4017.69230721,4052.30769189,4146.53846133,4139.48717928,4165.89743569,4078.97435863,4132.94871767,4143.07692287,4095.76923043,4026.92307644,4144.10256390,4088.20512786,0,0
49,16,4125.38461511,4105.12820485,4073.20512786,4060.76923036,4143.97435877,4136.92307672,4168.33333320,4073.58974325,4129.23076896,4134.74358947,4095.51282017,4084.23076889,4149.35897415,4097.94871761,0,0
50,16,4116.41025614,4098.20512786,4024.10256362,4046.28205087,4136.79487159,4133.84615357,4160.76923056,4070.64102530,4124.61538434,4126.53846126,4094.48717914,4028.46153798,4131.92307665,4089.74358940,0,0
51,16,4113.58974332,4098.46153812,3999.23076868,4042.30769189,4139.99999980,4131.02564075,4155.12820492,4074.48717914,4131.41025614,4136.15384595,4090.25640991,3993.84615329,4122.94871767,4080.51282017,0,0
52,16,4124.10256383,4111.53846126,4064.87179446,4061.92307651,4141.02564082,4131.79487152,4158.97435877,4082.69230735,4141.92307672,4148.84615364,4086.66666632,4056.41025600,4134.10256383,4091.02564068,0,0
53,16,4114.61538434,4101.02564068,4005.25640977,4047.69230728,4132.69230742,4141.41025621,4170.38461525,4092.43589709,4148.58974339,4144.61538441,4079.10256376,4011.53846106,4132.69230742,4082.17948684,0,0
54,16,4111.92307665,4101.41025607,4044.74358933,4050.76923036,4134.23076896,4131.66666639,4161.92307672,4088.58974325,4143.46153826,4136.28205108,4076.53846119,4048.20512779,4142.82051262,4084.48717914,0,0
55,16,4105.51282024,4094.61538427,4017.69230721,4047.69230728,4138.97435877,4129.99999973,4160.38461518,4085.12820478,4137.94871774,4133.84615357,4079.99999966,4020.76923029,4133.33333306,4079.48717914,0,0
56,16,4104.23076896,4094.23076889,4005.38461490,4049.35897395,4134.35897408,4133.46153819,4162.05128185,4078.71794837,4139.48717928,4137.30769210,4078.97435863,3990.25640970,4123.20512793,4074.74358940,0,0
57,16,4110.38461511,4103.33333306,4073.46153812,4061.79487138,4129.99999973,4122.94871767,4149.99999980,4067.30769189,4136.28205108,4140.25641005,4073.58974325,4049.74358933,4136.79487159,4084.99999966,0,0
58,16,4101.02564068,4092.69230735,4003.58974304,4044.87179446,4127.56410229,4123.33333306,4147.82051262,4065.76923036,4135.12820485,4138.33333313,4065.25640984,4016.79487131,4137.05128185,4080.76923043,0,0
59,16,4114.87179460,4106.66666639,4052.30769189,4060.76923036,4131.15384588,4127.69230742,4152.30769210,4066.41025600,4139.61538441,4143.07692287,4066.02564061,4069.61538420,4146.66666646,4093.71794837,0,0
60,16,4123.20512793,4107.30769203,4048.07692266,4062.94871754,4130.89743562,4132.82051255,4159.87179467,4069.35897395,4146.41025621,4151.15384595,4070.64102530,4057.17948677,4146.79487159,4097.94871761,0,0
61,16,4122.69230742,4104.10256383,4026.02564054,4059.99999959,4124.87179460,4132.56410229,4162.30769210,4066.28205087,4149.10256390,4155.25641005,4070.64102530,4020.12820465,4140.25641005,4098.33333299,0,0
62,16,4135.25640998,4124.23076896,4095.76923043,4083.71794837,4136.53846133,4131.92307665,4162.17948697,4058.58974318,4146.15384595,4153.71794851,4070.25640991,4083.97435863,4147.05128185,4110.25640998,0,0
63,16,4125.38461511,4114.48717921,4016.79487131,4069.61538420,4153.46153826,4142.05128185,4168.71794858,4057.94871754,4140.64102544,4144.61538441,4060.51282010,4044.74358933,4138.33333313,4091.41025607,0,0
64,16,4125.64102537,4112.94871767,4049.48717907,4074.74358940,4146.41025621,4140.38461518,4165.51282031,4050.64102523,4133.07692280,4141.66666646,4054.10256369,4080.76923043,4141.92307672,4089.61538427,177,13
65,16,4124.23076896,4112.43589716,4058.46153805,4074.87179453,4134.74358947,4143.58974339,4167.30769210,4048.71794830,4129.87179460,4135.38461518,4055.12820472,4061.53846113,4131.28205101,4088.46153812,241,13
66,16,4111.66666639,4104.87179460,4023.71794824,4062.17948677,4140.76923056,4143.71794851,4169.10256397,4052.82051241,4126.02564075,4121.66666639,4052.82051241,3993.71794817,4110.51282024,4071.02564068,157,12
67,16,4119.35897408,4112.17948691,4086.66666632,4072.69230735,4132.56410229,4128.58974332,4163.97435877,4048.33333292,4122.69230742,4121.66666639,4048.71794830,4053.46153805,4120.12820485,4075.76923043,246,13
68,16,4116.15384588,4101.02564068,4008.71794824,4052.94871754,4114.87179460,4127.17948691,4166.79487159,4042.17948677,4125.25640998,4125.38461511,4038.71794830,4028.20512772,4120.76923050,4074.61538427,245,13
69,16,4114.61538434,4102.30769196,4033.20512772,4056.66666625,4127.17948691,4125.38461511,4158.46153826,4030.89743541,4117.05128178,4126.28205101,4033.46153798,4061.53846113,4128.46153819,4085.51282017,124,12
70,16,4115.51282024,4107.05128178,4065.38461497,4068.97435856,4142.17948697,4129.61538434,4156.79487159,4029.74358926,4111.28205101,4131.15384588,4035.89743541,4068.84615343,4137.82051262,4089.61538427,22,13
71,16,4118.71794844,4108.58974332,4048.33333292,4072.43589709,4138.71794851,4137.17948697,4166.92307672,4036.79487131,4124.87179460,4138.71794851,4035.12820465,4026.41025593,4135.89743569,4082.05128171,33,11
72,16,4128.20512793,4120.51282024,4120.12820485,4088.33333299,4138.46153826,4130.76923050,4163.58974339,4030.51282003,4132.56410229,4138.20512800,4027.69230721,4087.94871761,4136.66666646,4092.56410222,125,13
73,16,4114.48717921,4108.58974332,4041.28205087,4067.94871754,4133.84615357,4134.48717921,4164.61538441,4024.10256362,4126.28205101,4129.35897408,4011.79487131,4051.53846113,4127.05128178,4083.97435863,249,13
74,16,4118.33333306,4115.38461511,4055.76923036,4076.15384581,4123.33333306,4135.51282031,4159.48717928,4019.48717900,4123.46153819,4129.99999973,4004.99999952,4077.17948684,4140.89743569,4089.48717914,167,4
75,16,4127.94871767,4123.07692280,4095.89743555,4092.43589709,4128.84615357,4132.05128178,4150.12820492,4019.35897388,4126.79487152,4135.89743569,3999.23076868,4085.89743555,4145.64102544,4100.64102530,221,13
76,16,4126.66666639,4115.76923050,4065.76923036,4085.51282017,4143.71794851,4131.41025614,4150.38461518,4021.66666618,4127.05128178,4139.99999980,3983.84615329,4033.58974311,4137.43589723,4098.84615350,222,13
77,16,4143.58974339,4131.02564075,4140.38461518,4102.69230742,4147.30769210,4129.35897408,4155.89743569,4020.38461490,4130.38461511,4148.33333313,3970.51281989,4110.76923050,4154.48717928,4115.12820485,75,13
78,16,4138.71794851,4129.48717921,4075.64102530,4095.89743555,4145.12820492,4137.69230749,4168.84615371,4021.92307644,4139.23076903,4149.61538441,3951.53846092,4083.71794837,4145.64102544,4109.10256383,167,4
79,16,4130.25640998,4128.33333306,4077.69230735,4096.28205094,4143.58974339,4134.61538434,4164.61538441,4015.25640977,4138.84615364,4144.10256390,3933.20512751,4090.76923043,4138.07692287,4104.48717921,221,13
80,16,4128.58974332,4122.69230742,4113.84615357,4092.82051248,4138.58974339,4128.71794844,4155.76923056,4008.46153798,4136.02564082,4140.64102544,3920.25640957,4106.53846126,4142.56410236,4102.56410229,222,13
81,16,4120.25640998,4113.07692280,4068.33333292,4080.12820478,4135.64102544,4135.51282031,4164.10256390,4008.46153798,4135.38461518,4139.10256390,3905.89743521,4040.64102523,4134.35897408,4086.53846119,75,13
82,16,4126.66666639,4128.97435870,4127.43589716,4101.53846119,4141.66666646,4134.23076896,4167.69230749,4006.66666618,4135.12820485,4141.02564082,3903.58974283,4098.84615350,4140.64102544,4094.99999966,167,4
83,16,4118.07692280,4118.07692280,4057.30769189,4090.25640991,4148.84615364,4135.64102544,4171.41025628,4009.23076875,4141.53846133,4142.43589723,3903.84615309,4080.76923043,4137.30769210,4089.23076889,221,13
84,16,4114.10256383,4115.38461511,4060.51282010,4092.94871761,4146.92307672,4134.61538434,4171.79487166,4008.58974311,4146.02564082,4146.41025621,3901.66666591,4087.30769196,4141.92307672,4088.97435863,222,13
85,16,4116.79487152,4123.97435870,4117.69230742,4103.97435870,4136.41025621,4131.53846126,4169.61538448,4007.82051234,4144.61538441,4143.71794851,3905.64102495,4101.15384581,4144.35897415,4095.51282017,75,13
86,16,4107.94871767,4109.61538434,4063.07692266,4085.12820478,4135.89743569,4128.20512793,4167.69230749,4005.51282003,4138.84615364,4131.92307665,3910.89743521,4033.33333285,4128.20512793,4081.02564068,167,4
87,16,4118.20512793,4114.74358947,4113.71794844,4098.07692273,4138.97435877,4120.64102537,4161.66666646,3997.17948663,4132.82051255,4129.23076896,3920.25640957,4102.17948684,4139.99999980,4090.76923043,221,13
88,16,4114.61538434,4112.94871767,4047.82051241,4090.76923043,4135.12820485,4135.64102544,4169.48717935,3999.10256355,4137.82051262,4130.38461511,3927.82051213,4083.97435863,4139.74358954,4092.43589709,222,13
89,16,4109.61538434,4111.15384588,4038.33333292,4091.15384581,4139.74358954,4141.53846133,4167.43589723,3994.74358919,4137.17948697,4127.69230742,3931.92307623,4065.64102523,4129.48717921,4091.28205094,75,13
90,16,4118.33333306,4119.48717921,4116.28205101,4112.82051255,4152.94871774,4132.30769203,4158.46153826,3988.58974304,4126.92307665,4126.28205101,3939.48717887,4103.84615357,4130.89743562,4095.51282017,167,4
91,16,4118.58974332,4119.23076896,4074.99999966,4108.20512793,4158.46153826,4138.33333313,4167.69230749,3998.20512765,4133.20512793,4131.28205101,3939.61538399,4058.20512779,4128.71794844,4088.97435863,221,13
92,16,4126.66666639,4127.94871767,4126.15384588,4115.89743562,4154.10256390,4138.71794851,4168.58974345,3998.20512765,4144.74358954,4135.76923056,3938.97435835,4111.92307665,4142.17948697,4102.69230742,222,13
93,16,4115.38461511,4115.25640998,4073.46153812,4102.82051255,4148.84615364,4138.84615364,4166.28205108,3991.66666611,4143.97435877,4131.79487152,3937.94871726,4091.28205094,4137.30769210,4095.89743555,75,13
94,16,4108.33333306,4111.66666639,4045.38461497,4101.53846119,4149.35897415,4136.15384595,4166.28205108,3989.35897381,4144.99999980,4135.12820485,3935.76923008,4076.02564068,4133.97435870,4089.23076889,167,4
95,16,4116.41025614,4121.15384588,4114.61538434,4117.43589716,4142.94871774,4131.41025614,4164.61538441,3990.89743535,4149.35897415,4144.35897415,3932.82051213,4120.51282024,4139.74358954,4098.07692273,221,13
96,16,4108.71794844,4108.71794844,4074.10256376,4103.20512793,4132.05128178,4130.38461511,4160.64102544,3991.53846099,4148.71794851,4140.12820492,3924.35897367,4063.20512779,4127.30769203,4085.64102530,222,13
97,16,4124.35897408,4124.99999973,4137.05128185,4118.97435870,4141.79487159,4126.41025614,4154.61538441,3987.05128150,4151.15384595,4140.51282031,3928.71794803,4122.05128178,4148.33333313,4099.61538427,75,13
98,16,4134.10256383,4134.48717921,4105.25640998,4122.05128178,4157.17948697,4139.61538441,4168.07692287,3993.46153791,4161.92307672,4150.76923056,3932.43589674,4122.30769203,4164.35897415,4112.43589716,167,4
99,16,4125.89743562,4125.25640998,4064.61538420,4114.10256383,4151.28205108,4142.05128185,4172.30769217,3992.82051227,4160.64102544,4152.05128185,3918.20512751,4088.58974325,4156.53846133,4108.20512793,221,13
100,16,4126.15384588,4123.84615357,4132.69230742,4122.82051255,4146.28205108,4131.02564075,4163.46153826,3984.61538406,4153.71794851,4146.53846133,3906.15384546,4133.46153819,4155.76923056,4109.74358947,222,13
101,16,4119.61538434,4117.56410229,4083.97435863,4112.05128178,4152.82051262,4137.56410236,4169.74358961,3989.23076868,4155.38461518,4146.41025621,3896.53846078,4087.43589709,4147.43589723,4098.07692273,75,13
102,16,4127.94871767,4132.43589716,4133.46153819,4123.84615357,4144.10256390,4138.97435877,4168.97435884,3984.74358919,4151.79487159,4151.28205108,3886.41025565,4133.33333306,4156.28205108,4103.97435870,167,4
103,16,4126.15384588,4125.38461511,4117.17948691,4118.46153819,4131.41025614,4138.97435877,4167.56410236,3978.84615329,4151.79487159,4146.66666646,3871.53846071,4120.12820485,4155.64102544,4103.71794844,221,13
104,16,4121.79487152,4119.10256383,4084.10256376,4119.10256383,4147.30769210,4140.76923056,4173.07692294,3983.33333278,4164.48717928,4146.79487159,3854.23076840,4080.89743555,4153.33333313,4100.38461504,222,13
105,16,4134.35897408,4138.07692287,4151.79487159,4138.20512800,4162.30769210,4135.12820485,4173.46153833,3985.51281996,4168.84615371,4154.74358954,3839.48717859,4137.94871774,4161.92307672,4112.05128178,75,13
106,16,4123.33333306,4119.99999973,4081.15384581,4103.07692280,4147.43589723,4133.20512793,4168.71794858,3977.05128150,4158.07692287,4142.94871774,3817.56410166,4083.71794837,4140.12820492,4096.28205094,167,4
107,16,4123.58974332,4117.82051255,4120.64102537,4103.58974332,4134.99999973,4126.92307665,4153.58974339,3961.15384553,4144.74358954,4127.05128178,3807.43589654,4119.87179460,4134.99999973,4095.12820478,221,13
108,16,4131.41025614,4132.43589716,4134.23076896,4128.07692280,4136.79487159,4129.23076896,4154.74358954,3961.15384553,4143.07692287,4124.23076896,3810.38461449,4134.10256383,4140.12820492,4102.82051255,222,13
109,16,4131.53846126,4132.56410229,4106.79487152,4133.58974332,4138.46153826,4132.43589716,4163.07692287,3962.94871733,4142.05128185,4126.53846126,3808.07692218,4102.69230742,4138.84615364,4104.10256383,75,13
110,16,4138.07692287,4135.38461518,4185.25641012,4144.48717928,4147.05128185,4126.15384588,4154.10256390,3956.02564040,4136.15384595,4127.94871767,3803.46153749,4166.66666646,4147.43589723,4117.56410229,167,4
111,16,4132.30769203,4128.58974332,4127.17948691,4131.02564075,4148.33333313,4134.48717921,4151.92307672,3958.71794810,4138.97435877,4124.10256383,3796.02564006,4128.84615357,4140.76923056,4111.66666639,221,13
112,16,4144.48717928,4137.82051262,4154.74358954,4139.48717928,4139.35897415,4139.23076903,4157.05128185,3962.30769169,4144.48717928,4130.12820485,3795.38461442,4161.92307672,4151.66666646,4122.05128178,222,13
113,16,4153.46153826,4137.69230749,4166.53846133,4141.41025621,4146.28205108,4143.46153826,4167.56410236,3968.97435835,4154.99999980,4148.84615364,3798.84615288,4174.99999986,4164.87179467,4135.76923056,75,13
114,16,4144.10256390,4133.07692280,4119.61538434,4132.30769203,4152.56410236,4147.69230749,4168.58974345,3975.12820458,4166.02564082,4156.92307672,3791.28205031,4122.17948691,4164.23076903,4129.87179460,167,4
115,16,4147.43589723,4143.20512800,4183.97435884,4145.89743569,4141.92307672,4135.38461518,4153.58974339,3967.43589681,4157.94871774,4145.38461518,3776.41025544,4167.82051262,4165.64102544,4133.07692280,221,13
116,16,4140.76923056,4126.02564075,4118.33333306,4125.64102537,4139.23076903,4131.92307665,4152.17948697,3957.56410194,4146.41025621,4131.02564075,3760.76922973,4124.61538434,4149.48717928,4121.53846126,222,13
117,16,4144.87179467,4131.92307665,4140.25641005,4130.51282024,4147.94871774,4134.74358947,4153.20512800,3952.30769169,4146.92307672,4135.12820485,3758.46153742,4155.12820492,4154.87179467,4125.89743562,75,13
118,16,4144.35897415,4142.69230749,4173.71794858,4142.30769210,4143.07692287,4140.51282031,4155.76923056,3958.84615322,4148.97435877,4140.12820492,3766.79487076,4172.43589730,4159.74358954,4129.99999973,167,4
119,16,4132.17948691,4129.35897408,4117.56410229,4129.48717921,4133.97435870,4142.05128185,4162.30769210,3966.66666605,4145.51282031,4133.71794844,3768.71794768,4103.97435870,4146.02564082,4115.12820485,221,13
120,16,4144.87179467,4136.41025621,4176.28205115,4141.79487159,4135.76923056,4135.89743569,4158.97435877,3966.41025579,4147.17948697,4135.64102544,3766.53846050,4159.61538441,4157.69230749,4123.07692280,222,13
121,16,4143.97435877,4132.05128178,4121.41025614,4128.84615357,4139.48717928,4147.17948697,4158.46153826,3971.15384553,4153.46153826,4142.30769210,3756.41025537,4137.82051262,4158.58974339,4119.23076896,75,13
122,16,4144.23076903,4137.30769210,4138.97435877,4134.61538434,4146.79487159,4149.23076903,4151.92307672,3969.74358912,4150.76923056,4143.07692287,3746.79487076,4162.43589723,4160.76923056,4124.74358947,167,4
127,16,4138.97435877,4141.79487159,4149.87179467,4152.30769210,4149.74358954,4157.30769210,4175.12820499,3981.53846099,4158.20512800,4145.89743569,3707.05128087,4175.25641012,4164.87179467,4117.17948691,57,0
0,16,4138.46153826,4145.25641005,4189.48717935,4161.02564082,4137.69230749,4142.05128185,4166.02564082,3978.71794817,4155.51282031,4146.92307672,3713.46153735,4200.12820499,4166.15384595,4126.66666639,183,13
7,16,4142.69230749,4147.30769210,4196.02564089,4158.84615364,4145.51282031,4143.97435877,4156.02564082,3988.58974304,4146.53846133,4149.61538441,3703.84615267,4163.97435877,4162.30769210,4120.89743562,43,11
8,16,4147.82051262,4150.38461518,4177.82051269,4156.92307672,4152.30769210,4148.71794851,4152.94871774,3996.53846099,4161.15384595,4157.30769210,3702.82051164,4173.84615371,4168.33333320,4124.35897408,132,13
12,16,4152.82051262,4152.94871774,4206.79487173,4163.20512800,4142.56410236,4153.97435877,4169.35897422,4007.56410208,4151.92307672,4156.53846133,3706.02563985,4169.10256397,4169.87179474,4127.82051255,234,13
19,16,4142.69230749,4137.30769210,4125.51282024,4138.84615364,4123.33333306,4132.05128178,4142.43589723,4001.02564047,4128.20512793,4142.82051262,3671.53846029,4145.25641005,4148.07692287,4112.43589716,0,0
20,16,4135.38461518,4136.41025621,4175.89743576,4139.99999980,4133.07692280,4125.64102537,4135.64102544,3989.23076868,4111.79487152,4128.20512793,3668.97435773,4171.41025628,4143.71794851,4109.10256383,0,0
24,16,4130.64102537,4132.56410229,4117.82051255,4138.84615364,4129.61538434,4143.46153826,4138.46153826,4004.23076875,4123.71794844,4136.02564082,3681.02563985,4115.76923050,4145.89743569,4099.74358940,0,0
33,16,4140.38461518,4143.07692287,4182.05128192,4148.07692287,4137.82051262,4140.64102544,4139.61538441,4045.64102523,4128.46153819,4142.82051262,3708.07692190,4182.30769217,4151.02564082,4108.58974332,0,0
34,16,4123.07692280,4130.51282024,4115.25640998,4135.25640998,4126.53846126,4144.48717928,4139.99999980,4052.17948677,4132.43589716,4138.58974339,3725.38461428,4124.23076896,4142.05128185,4095.51282017,0,0
36,16,4126.79487152,4136.66666646,4142.30769210,4152.69230749,4135.51282031,4139.48717928,4137.05128185,4055.12820472,4125.38461511,4135.25640998,3751.79487076,4132.05128178,4139.61538441,4093.20512786,0,0
45,16,4127.43589716,4139.61538441,4177.94871781,4161.66666646,4145.89743569,4138.46153826,4127.43589716,4119.61538434,4129.35897408,4141.41025621,3909.10256341,4158.71794851,4146.79487159,4098.07692273,0,0
46,16,4124.10256383,4134.61538434,4147.43589723,4156.79487159,4137.69230749,4142.94871774,4131.15384588,4121.66666639,4117.94871767,4132.17948691,3933.84615316,4131.28205101,4136.79487159,4087.82051248,0,0
53,16,4144.48717928,4144.23076903,4195.12820499,4168.58974345,4131.92307665,4136.66666646,4141.02564082,4204.35897429,4124.61538434,4131.92307665,4186.41025628,4192.17948704,4151.28205108,4109.10256383,0,0
54,16,4121.92307665,4127.43589716,4115.25640998,4148.71794851,4137.17948697,4137.82051262,4138.71794851,4204.35897429,4113.33333306,4118.07692280,4212.17948711,4108.20512793,4120.76923050,4088.46153812,0,0
58,16,4132.56410229,4146.92307672,4195.76923063,4169.74358961,4141.41025621,4142.17948697,4139.23076903,4233.58974352,4124.61538434,4126.41025614,4306.02564117,4191.66666653,4140.64102544,4107.17948691,0,0
65,16,4131.66666639,4138.46153826,4140.25641005,4162.43589723,4141.15384595,4141.79487159,4141.66666646,4289.35897443,4131.92307665,4129.61538434,4404.35897471,4134.99999973,4136.41025621,4098.71794837,242,13
66,16,4141.92307672,4143.46153826,4156.41025621,4169.99999986,4151.79487159,4139.10256390,4132.17948691,4287.56410264,4131.53846126,4129.35897408,4402.30769266,4158.33333313,4145.38461518,4105.64102537,156,13
70,16,4129.35897408,4135.12820485,4139.23076903,4156.53846133,4140.25641005,4143.07692287,4143.84615364,4303.33333348,4129.74358947,4119.48717921,4420.25641061,4118.33333306,4132.69230742,4087.30769196,98,13
79,16,4131.15384588,4130.64102537,4104.23076896,4151.02564082,4129.74358947,4149.61538441,4145.12820492,4305.51282066,4132.17948691,4131.92307665,4421.79487215,4119.74358947,4128.97435870,4097.56410222,225,13
80,16,4139.61538441,4139.87179467,4138.71794851,4159.48717928,4142.69230749,4158.20512800,4148.71794851,4307.94871809,4138.07692287,4134.99999973,4428.84615420,4119.61538434,4134.48717921,4096.53846119,230,13
82,16,4118.97435870,4119.87179460,4090.89743555,4132.30769203,4132.30769203,4144.35897415,4139.87179467,4302.82051296,4130.76923050,4128.84615357,4437.94871837,4113.33333306,4124.99999973,4082.56410222,139,4
91,16,4136.28205108,4136.28205108,4171.66666653,4156.79487159,4125.12820485,4133.84615357,4128.46153819,4278.58974366,4123.71794844,4127.05128178,4482.05128254,4153.07692287,4142.17948697,4098.84615350,225,13
92,16,4129.35897408,4126.92307665,4089.48717914,4144.61538441,4120.64102537,4135.38461518,4132.56410229,4272.56410264,4122.94871767,4124.74358947,4475.38461587,4110.38461511,4141.02564082,4092.17948684,230,13
101,16,4150.25641005,4138.97435877,4182.56410243,4155.76923056,4137.30769210,4137.05128185,4130.64102537,4248.58974359,4126.79487152,4129.48717921,4482.82051331,4175.89743576,4138.84615364,4103.58974332,73,13
102,16,4146.02564082,4134.10256383,4101.28205094,4142.43589723,4137.56410236,4155.51282031,4144.61538441,4255.64102564,4138.20512800,4134.48717921,4487.69230818,4123.20512793,4142.94871774,4105.12820485,139,4
46,16,4148.33333313,4147.05128185,4193.84615371,4168.84615371,4131.79487152,4136.02564082,4142.17948697,4171.02564089,4155.64102544,4147.82051262,4327.05128219,4167.17948697,4157.17948697,4108.07692280,0,0
113,16,4133.46153819,4131.79487152,4114.48717921,4127.69230742,4146.41025621,4151.79487159,4155.38461518,4225.51282045,4133.33333306,4143.58974339,4137.43589723,4129.99999973,4139.61538441,4099.35897402,78,13
114,16,4142.17948697,4140.51282031,4156.92307672,4135.51282031,4144.99999980,4147.69230749,4154.87179467,4234.74358975,4142.69230749,4142.94871774,4132.17948691,4147.05128185,4148.97435877,4099.61538427,81,4
121,16,4134.61538434,4120.89743562,4089.10256376,4115.25640998,4151.53846133,4145.12820492,4149.10256390,4235.89743590,4138.97435877,4143.58974339,4108.58974332,4117.69230742,4132.82051255,4097.69230735,78,13
122,16,4140.89743569,4130.76923050,4133.20512793,4129.10256383,4149.74358954,4140.25641005,4142.43589723,4228.20512814,4132.05128178,4141.92307672,4107.94871767,4159.61538441,4140.12820492,4104.74358947,81,4
124,16,4148.84615364,4135.76923056,4129.87179460,4133.07692280,4143.33333313,4138.58974339,4136.41025621,4232.17948711,4139.61538441,4140.12820492,4105.64102537,4133.33333306,4140.76923056,4108.97435870,241,13
5,16,4167.17948697,4155.25641005,4156.53846133,4148.84615364,4154.35897415,4137.56410236,4139.10256390,4232.94871788,4141.66666646,4153.97435877,4096.53846119,4159.35897415,4157.30769210,4130.51282024,126,12
6,16,4164.87179467,4150.25641005,4140.25641005,4142.17948697,4153.20512800,4141.02564082,4144.74358954,4241.66666667,4148.20512800,4160.64102544,4094.23076889,4138.07692287,4156.79487159,4123.07692280,21,13
15,16,4159.10256390,4139.23076903,4185.76923063,4122.17948691,4135.89743569,4131.79487152,4145.25641005,4243.07692308,4148.07692287,4168.97435884,4102.43589709,4198.33333320,4188.46153833,4137.94871774,232,13
16,16,4152.05128185,4131.92307665,4155.89743569,4104.35897408,4137.43589723,4138.97435877,4149.35897415,4244.48717949,4148.20512800,4161.92307672,4097.56410222,4167.05128185,4177.94871781,4122.56410229,0,0
23,16,4132.94871767,4119.23076896,4092.17948684,4093.71794837,4139.35897415,4152.69230749,4148.20512800,4227.69230763,4141.41025621,4147.56410236,4081.92307658,4125.25640998,4145.64102544,4106.92307665,0,0
24,16,4126.79487152,4115.76923050,4119.99999973,4091.41025607,4129.10256383,4143.07692287,4139.99999980,4222.43589737,4128.84615357,4141.66666646,4074.61538427,4130.25640998,4145.25641005,4108.20512793,0,0
28,16,4121.66666639,4118.58974332,4093.33333299,4092.17948684,4129.74358947,4147.43589723,4146.02564082,4227.17948711,4138.97435877,4149.35897415,4065.12820472,4107.30769203,4141.15384595,4103.71794844,0,0
37,16,4150.89743569,4138.97435877,4174.10256397,4114.23076896,4147.43589723,4146.53846133,4148.71794851,4212.94871788,4133.71794844,4158.07692287,4052.56410215,4185.25641012,4166.41025621,4125.64102537,0,0
38,16,4140.25641005,4121.66666639,4100.51282017,4086.28205094,4146.66666646,4144.74358954,4152.56410236,4210.64102558,4139.61538441,4160.12820492,4055.25640984,4132.05128178,4157.17948697,4119.48717921,0,0
40,16,4148.58974339,4133.58974332,4162.05128185,4102.05128171,4141.79487159,4147.17948697,4151.15384595,4218.84615378,4140.38461518,4155.51282031,4047.30769189,4152.82051262,4165.25641005,4122.05128178,0,0
47,16,4131.15384588,4121.41025614,4135.25640998,4091.41025607,4132.94871767,4137.43589723,4148.33333313,4220.25641019,4136.79487159,4153.07692287,4023.71794824,4159.87179467,4149.10256390,4109.61538434,0,0
48,16,4130.51282024,4115.51282024,4112.30769203,4087.17948684,4136.15384595,4140.89743569,4153.71794851,4231.02564096,4146.92307672,4162.17948697,4032.56410208,4129.10256383,4142.94871774,4106.79487152,0,0
55,16,4133.97435870,4120.38461511,4142.43589723,4096.66666632,4134.74358947,4128.58974332,4142.05128185,4228.46153840,4144.23076903,4151.53846133,3996.28205073,4136.15384595,4146.66666646,4109.10256383,0,0
56,16,4124.74358947,4109.61538434,4072.69230735,4075.76923043,4122.56410229,4139.87179467,4147.43589723,4228.07692301,4142.82051262,4144.87179467,3977.05128150,4097.43589709,4137.94871774,4098.46153812,0,0
64,16,4133.71794844,4112.56410229,4070.89743555,4081.28205094,4132.30769203,4138.97435877,4153.07692287,4229.23076917,4144.23076903,4158.46153826,3941.28205066,4075.64102530,4136.66666646,4105.38461511,173,13
67,16,4134.35897408,4119.99999973,4082.17948684,4092.05128171,4120.76923050,4146.28205108,4152.43589723,4226.41025634,4150.64102544,4160.89743569,3921.28205059,4139.74358954,4158.07692287,4115.51282024,243,13
68,16,4128.71794844,4120.12820485,4108.07692280,4094.10256376,4119.61538434,4135.12820485,4143.97435877,4219.74358968,4140.25641005,4154.61538441,3926.02564033,4140.64102544,4144.10256390,4106.28205101,244,13
76,16,4119.61538434,4115.76923050,4075.89743555,4098.07692273,4131.53846126,4128.58974332,4127.94871767,4204.23076917,4128.58974332,4131.53846126,3948.84615322,4109.48717921,4128.58974332,4096.28205094,225,13
81,16,4123.46153819,4125.89743562,4091.02564068,4111.92307665,4136.02564082,4129.61538434,4134.87179460,4197.94871781,4129.35897408,4127.69230742,3969.99999938,4117.56410229,4115.76923050,4087.17948684,68,13
82,16,4129.61538434,4128.20512793,4079.74358940,4116.15384588,4139.35897415,4134.74358947,4141.92307672,4197.82051269,4134.48717921,4140.76923056,3972.30769176,4130.89743562,4128.58974332,4093.97435863,158,4
89,16,4127.69230742,4130.51282024,4086.15384581,4120.76923050,4140.76923056,4137.69230749,4139.35897415,4202.82051275,4133.97435870,4132.69230742,3983.84615329,4098.46153812,4125.89743562,4092.56410222,68,13
90,16,4139.23076903,4143.07692287,4146.92307672,4135.51282031,4143.33333313,4134.61538434,4137.56410236,4202.17948711,4136.53846133,4134.61538434,3992.82051227,4141.92307672,4141.41025621,4105.76923050,158,4
97,16,4121.66666639,4124.35897408,4074.74358940,4119.74358947,4134.99999973,4128.46153819,4127.30769203,4194.99999986,4140.25641005,4134.48717921,3992.30769176,4114.35897408,4125.89743562,4098.07692273,68,13
98,16,4131.79487152,4139.99999980,4141.15384595,4138.58974339,4136.15384595,4129.74358947,4131.79487152,4194.35897422,4141.92307672,4141.15384595,3991.79487124,4167.30769210,4141.28205108,4116.79487152,158,4
100,16,4135.76923056,4140.64102544,4153.58974339,4138.46153826,4142.69230749,4126.41025614,4126.15384588,4195.89743576,4143.84615364,4138.46153826,3997.17948663,4131.92307665,4136.02564082,4102.69230742,225,13
107,16,4128.20512793,4131.28205101,4075.51282017,4127.56410229,4126.66666639,4131.15384588,4137.30769210,4188.84615371,4145.64102544,4141.41025621,4008.58974311,4111.79487152,4137.05128185,4101.92307658,32,13
108,16,4145.12820492,4147.05128185,4148.84615364,4147.17948697,4125.25640998,4128.07692280,4136.15384595,4191.02564089,4149.23076903,4152.94871774,4012.30769183,4165.25641005,4143.84615364,4118.84615357,225,13
115,16,4143.84615364,4136.53846133,4136.41025621,4137.17948697,4133.46153819,4132.69230742,4133.58974332,4170.89743576,4145.38461518,4144.61538441,4011.66666618,4147.69230749,4141.66666646,4108.97435870,32,13
116,16,4149.74358954,4139.74358954,4164.99999980,4143.20512800,4132.43589716,4130.38461511,4136.02564082,4170.51282038,4149.10256390,4148.97435877,4019.23076875,4177.30769217,4148.33333313,4120.76923050,225,13
124,16,4140.25641005,4144.23076903,4133.07692280,4155.64102544,4137.82051262,4144.74358954,4147.56410236,4181.53846140,4168.20512807,4159.23076903,4024.99999952,4146.02564082,4146.92307672,4111.15384588,225,13
127,16,4119.74358947,4125.51282024,4089.61538427,4130.12820485,4134.99999973,4136.02564082,4141.79487159,4166.92307672,4144.10256390,4143.58974339,4023.33333285,4106.15384588,4137.94871774,4093.84615350,57,0
0,16,4127.17948691,4136.15384595,4139.61538441,4141.15384595,4136.92307672,4134.23076896,4138.84615364,4166.15384595,4147.82051262,4146.66666646,4022.30769183,4143.58974339,4143.46153826,4103.58974332,177,13
8,16,4138.84615364,4144.23076903,4158.46153826,4154.74358954,4134.99999973,4148.07692287,4139.74358954,4188.46153833,4164.23076903,4155.38461518,4018.84615336,4178.84615371,4150.51282031,4114.74358947,116,13
13,16,4136.02564082,4143.33333313,4143.97435877,4142.05128185,4124.74358947,4145.38461518,4134.99999973,4188.84615371,4145.38461518,4147.56410236,4003.71794817,4157.94871774,4128.33333306,4097.56410222,69,13
14,16,4129.99999973,4127.30769203,4056.53846113,4124.35897408,4131.28205101,4149.87179467,4136.53846133,4190.38461525,4142.05128185,4141.92307672,4008.84615336,4084.10256376,4119.35897408,4088.84615350,125,4
20,16,4146.02564082,4138.71794851,4102.94871767,4140.64102544,4121.41025614,4148.33333313,4145.76923056,4218.33333327,4155.64102544,4150.76923056,4001.15384560,4097.43589709,4128.20512793,4106.79487152,0,0
23,16,4136.92307672,4136.28205108,4135.76923056,4141.28205108,4136.79487159,4148.97435877,4139.35897415,4216.79487173,4143.33333313,4140.38461518,3987.05128150,4150.12820492,4132.69230742,4096.92307658,0,0
24,16,4123.33333306,4126.92307665,4065.38461497,4130.51282024,4128.71794844,4152.17948697,4141.79487159,4218.97435891,4143.33333313,4140.51282031,3988.71794817,4086.66666632,4122.94871767,4087.43589709,0,0
31,16,4136.66666646,4141.92307672,4145.38461518,4152.05128185,4122.43589716,4136.66666646,4128.46153819,4210.51282045,4131.53846126,4139.48717928,3982.43589688,4129.10256383,4127.30769203,4092.05128171,0,0
32,16,4135.64102544,4141.28205108,4097.05128171,4140.12820492,4120.89743562,4145.12820492,4136.41025621,4224.61538455,4137.69230749,4146.02564082,3975.51281996,4107.82051255,4132.94871767,4090.25640991,0,0
34,16,4126.41025614,4122.56410229,4073.46153812,4135.38461518,4130.51282024,4140.64102544,4135.51282031,4217.43589737,4136.92307672,4140.25641005,3986.02564047,4106.02564075,4119.87179460,4093.71794837,0,0
43,16,4128.07692280,4141.53846133,4139.61538441,4152.30769210,4134.61538434,4139.99999980,4131.15384588,4204.23076917,4136.28205108,4144.99999980,3970.12820451,4154.61538441,4122.43589716,4087.82051248,0,0
44,16,4134.35897408,4141.41025621,4127.69230742,4156.53846133,4137.17948697,4132.94871767,4131.66666639,4208.46153840,4137.43589723,4147.43589723,3977.56410201,4138.20512800,4127.17948691,4091.41025607,0,0
51,16,4154.10256390,4171.15384602,4171.02564089,4195.64102551,4134.61538434,4136.28205108,4129.87179460,4196.92307679,4123.33333306,4118.71794844,3972.82051227,4168.07692287,4120.38461511,4102.43589709,0,0
52,16,4147.30769210,4155.25641005,4086.79487145,4183.33333320,4150.12820492,4137.30769210,4131.66666639,4192.69230756,4118.20512793,4109.87179460,3957.30769169,4125.64102537,4105.89743562,4093.20512786,0,0
56,16,4148.07692287,4176.92307679,4169.87179474,4225.38461532,4152.43589723,4129.99999973,4125.12820485,4174.35897422,4098.07692273,4093.46153812,3954.10256348,4149.23076903,4093.20512786,4096.53846119,0,0
65,16,4145.25641005,4165.51282031,4106.02564075,4204.99999993,4151.66666646,4142.17948697,4133.71794844,4203.33333327,4129.23076896,4125.51282024,3970.64102502,4094.48717914,4106.02564075,4082.56410222,230,13
66,16,4159.23076903,4180.64102551,4160.51282031,4222.69230763,4150.12820492,4140.64102544,4137.69230749,4203.84615378,4134.74358947,4129.48717921,3975.25640970,4153.20512800,4120.76923050,4095.25640991,166,13
68,16,4128.97435870,4157.82051262,4086.92307658,4193.20512807,4135.51282031,4143.58974339,4153.71794851,4200.12820499,4130.51282024,4117.43589716,3965.51281989,4120.38461511,4104.87179460,4078.33333299,238,13
77,16,4137.05128185,4157.94871774,4088.46153812,4184.23076910,4135.89743569,4146.53846133,4134.10256383,4209.35897429,4125.25640998,4113.33333306,3979.87179432,4131.79487152,4112.05128178,4095.38461504,69,13
78,16,4126.41025614,4147.05128185,4067.43589702,4176.79487166,4134.35897408,4146.15384595,4130.12820485,4211.79487173,4129.10256383,4109.74358947,3977.69230714,4111.15384588,4101.53846119,4085.76923043,154,4
80,16,4129.10256383,4143.33333313,4075.12820478,4170.25641012,4118.71794844,4145.64102544,4146.79487159,4225.12820506,4132.69230742,4105.38461511,3979.74358919,4076.15384581,4089.48717914,4084.74358940,226,13
87,16,4135.12820485,4160.64102544,4114.23076896,4192.69230756,4137.05128185,4155.12820492,4142.94871774,4218.20512814,4122.43589716,4112.82051255,3983.07692252,4128.20512793,4099.99999966,4084.61538427,210,13
88,16,4126.41025614,4153.58974339,4078.97435863,4180.12820499,4139.10256390,4147.94871774,4144.23076903,4219.10256404,4126.02564075,4114.35897408,3983.97435842,4095.89743555,4089.48717914,4079.10256376,226,13
92,16,4122.43589716,4157.56410236,4116.02564075,4192.43589730,4130.38461511,4143.97435877,4138.84615364,4225.89743583,4128.71794844,4114.61538434,3990.89743535,4122.30769203,4097.30769196,4082.94871761,226,13
95,16,4099.61538427,4131.15384588,4074.48717914,4165.25641005,4135.89743569,4139.35897415,4127.05128178,4205.12820506,4102.30769196,4086.92307658,3979.61538406,4063.84615343,4075.25640991,4051.92307651,210,13
104,16,4124.61538434,4154.61538441,4116.53846126,4180.76923063,4129.74358947,4132.05128178,4141.79487159,4221.79487173,4133.84615357,4117.94871767,4004.48717900,4127.43589716,4102.56410229,4081.15384581,226,13
109,16,4134.99999973,4149.48717928,4126.92307665,4179.48717935,4121.28205101,4116.02564075,4126.28205101,4207.56410250,4134.99999973,4133.97435870,4004.23076875,4138.58974339,4116.41025614,4100.64102530,69,13
110,16,4131.02564075,4150.25641005,4096.53846119,4175.25641012,4136.41025621,4122.69230742,4139.35897415,4215.25641019,4137.94871774,4135.25640998,4006.15384567,4105.76923050,4107.17948691,4091.28205094,154,4
117,16,4126.15384588,4143.07692287,4136.41025621,4162.56410236,4123.46153819,4121.53846126,4128.58974332,4198.33333320,4124.87179460,4113.20512793,4001.66666611,4139.48717928,4092.17948684,4089.35897402,69,13
118,16,4120.64102537,4134.99999973,4063.46153805,4152.82051262,4132.17948691,4134.99999973,4128.84615357,4197.30769217,4130.51282024,4113.71794844,4003.84615329,4078.84615350,4095.64102530,4085.51282017,154,4
125,16,4180.76923063,4200.89743576,4168.07692287,4222.43589737,4172.17948704,4170.51282038,4175.76923063,4252.43589744,4185.76923063,4182.17948704,4025.51282003,4169.61538448,4156.66666646,4141.53846133,69,13
126,16,4181.15384602,4199.23076910,4153.71794851,4214.61538455,4169.74358961,4164.99999980,4169.23076910,4251.02564103,4174.35897422,4174.87179474,4019.23076875,4154.74358954,4155.51282031,4137.05128185,154,4
0,16,4179.10256397,4186.41025628,4112.69230742,4204.48717942,4187.05128192,4161.79487159,4166.15384595,4231.79487173,4175.89743576,4174.99999986,4022.94871747,4147.05128185,4149.23076903,4136.15384595,178,13
9,16,4200.64102551,4224.10256404,4224.23076917,4245.64102564,4200.51282038,4165.89743569,4168.20512807,4232.30769224,4197.56410243,4190.76923063,4024.99999952,4237.30769231,4185.76923063,4166.79487159,248,13
10,16,4195.76923063,4218.46153840,4148.71794851,4231.53846147,4203.84615378,4167.82051262,4170.51282038,4223.58974352,4193.46153833,4191.79487166,4028.58974311,4172.94871781,4176.66666653,4158.46153826,138,4
12,16,4207.30769224,4223.07692301,4202.69230763,4253.58974359,4200.76923063,4164.61538441,4172.05128192,4209.61538455,4186.28205115,4186.41025628,4029.61538413,4209.74358968,4180.38461525,4162.94871774,224,13
21,16,4201.79487173,4213.84615378,4178.33333320,4234.48717949,4187.43589730,4168.84615371,4165.12820492,4218.97435891,4198.33333320,4199.10256397,4031.53846106,4186.92307679,4178.97435884,4164.99999980,0,0
22,16,4203.33333327,4217.30769224,4212.69230763,4240.51282052,4196.53846140,4161.92307672,4160.38461518,4199.61538448,4192.17948704,4196.02564089,4031.53846106,4211.79487173,4182.43589730,4164.74358954,0,0
29,16,4165.89743569,4187.56410243,4181.92307679,4208.97435891,4189.74358961,4180.51282038,4188.33333320,4216.15384609,4179.10256397,4156.41025621,3998.33333278,4204.23076917,4152.05128185,4124.23076896,0,0
30,16,4169.10256397,4180.64102551,4140.38461518,4204.23076917,4188.58974345,4178.71794858,4179.87179474,4216.15384609,4178.07692294,4159.99999980,3995.76923022,4168.20512807,4149.10256390,4126.41025614,0,0
34,16,4205.89743583,4204.99999993,4203.46153840,4222.56410250,4188.07692294,4164.87179467,4154.87179467,4199.48717935,4181.53846140,4186.53846140,4000.38461483,4232.56410250,4190.64102551,4169.99999986,0,0
43,16,4188.58974345,4184.74358961,4119.61538434,4194.35897422,4183.20512807,4177.82051269,4187.30769217,4312.94871809,4187.56410243,4178.58974345,3984.99999945,4161.02564082,4167.30769210,4144.35897415,0,0
44,16,4195.51282038,4186.66666653,4164.61538441,4199.99999986,4192.43589730,4166.92307672,4173.58974345,4312.82051296,4182.56410243,4180.76923063,3985.64102509,4208.71794865,4182.69230756,4154.23076903,0,0
46,16,4180.25641012,4177.69230756,4122.30769203,4189.61538448,4165.89743569,4163.58974339,4155.64102544,4314.87179501,4164.10256390,4173.58974345,3998.33333278,4139.10256390,4165.76923056,4135.64102544,0,0
55,16,4166.53846133,4165.25641005,4124.48717921,4185.89743576,4173.07692294,4172.05128192,4176.79487166,4477.94871844,4177.17948704,4175.76923063,4039.48717907,4181.66666653,4167.94871774,4133.97435870,0,0
56,16,4162.05128185,4159.48717928,4082.17948684,4179.61538448,4162.82051262,4163.20512800,4174.35897422,4481.02564152,4169.87179474,4172.56410243,4045.89743548,4115.89743562,4157.17948697,4123.46153819,0,0
58,16,4165.89743569,4166.15384595,4080.12820478,4172.43589730,4161.28205108,4161.28205108,4161.28205108,4477.56410305,4161.41025621,4168.97435884,4050.51282010,4148.33333313,4153.58974339,4123.33333306,0,0
65,16,4153.46153826,4161.41025621,4119.87179460,4177.82051269,4162.17948697,4150.89743569,4159.35897415,4533.58974422,4173.33333320,4174.61538448,4073.58974325,4173.71794858,4166.92307672,4123.07692280,229,13
66,16,4140.51282031,4146.28205108,4062.56410215,4161.41025621,4158.58974339,4143.20512800,4151.53846133,4532.05128268,4165.12820492,4165.25641005,4072.94871761,4104.99999973,4144.10256390,4105.12820485,141,13
70,16,4144.87179467,4149.61538441,4104.23076896,4163.71794851,4147.82051262,4132.30769203,4132.17948691,4494.61538511,4137.82051262,4151.41025621,4076.92307658,4166.92307672,4144.35897415,4115.51282024,21,13
80,16,4148.33333313,4133.97435870,4097.43589709,4141.02564082,4130.12820485,4127.94871767,4139.99999980,4456.41025683,4134.48717921,4146.66666646,4098.97435863,4168.07692287,4132.56410229,4113.58974332,228,13
83,16,4134.74358947,4136.15384595,4084.10256376,4147.05128185,4150.38461518,4127.17948691,4125.38461511,4397.05128233,4126.66666639,4153.84615364,4122.56410229,4155.64102544,4138.33333313,4105.12820485,240,13
84,16,4125.76923050,4130.76923050,4043.84615343,4138.84615364,4142.05128185,4133.46153819,4134.61538434,4398.71794907,4139.48717928,4154.35897415,4124.87179460,4139.87179467,4137.30769210,4100.25640991,228,13
92,16,4131.66666639,4129.10256383,4108.33333306,4148.20512800,4142.30769210,4102.17948684,4113.20512793,4323.33333348,4133.20512793,4146.53846133,4161.53846133,4147.69230749,4134.61538434,4101.66666632,228,13
97,16,4132.43589716,4138.33333313,4112.30769203,4153.46153826,4155.38461518,4139.23076903,4131.92307665,4282.56410264,4137.17948697,4147.30769210,4170.64102551,4131.66666639,4122.94871767,4096.66666632,72,13
98,16,4137.94871774,4147.56410236,4129.99999973,4162.56410236,4154.99999980,4140.76923056,4140.12820492,4289.48717956,4144.48717928,4150.12820492,4173.84615371,4163.58974339,4138.58974339,4104.48717921,164,4
105,16,4159.74358954,4153.07692287,4123.71794844,4171.53846140,4142.17948697,4122.17948691,4122.30769203,4223.84615378,4132.17948691,4148.71794851,4198.07692294,4185.38461525,4155.64102544,4136.53846133,72,13
106,16,4160.38461518,4152.69230749,4084.23076889,4164.61538441,4155.64102544,4128.07692280,4130.25640998,4214.87179481,4128.58974332,4147.30769210,4200.76923063,4138.71794851,4143.07692287,4126.53846126,164,4
113,16,4133.97435870,4146.53846133,4148.97435877,4158.84615364,4151.53846133,4140.12820492,4137.69230749,4189.99999986,4143.46153826,4144.48717928,4232.17948711,4174.23076910,4129.74358947,4107.82051255,72,13
114,16,4125.38461511,4128.84615357,4063.07692266,4139.35897415,4147.69230749,4136.53846133,4136.28205108,4179.23076910,4138.84615364,4138.84615364,4233.84615385,4125.76923050,4127.69230742,4100.25640991,164,4
121,16,4115.25640998,4120.64102537,4106.28205101,4134.23076896,4131.28205101,4142.56410236,4147.43589723,4124.87179460,4134.10256383,4128.71794844,4282.56410264,4117.56410229,4123.97435870,4093.46153812,72,13
122,16,4112.69230742,4116.53846126,4109.61538434,4130.76923050,4140.25641005,4144.99999980,4144.74358954,4123.20512793,4133.07692280,4125.12820485,4287.05128212,4100.64102530,4116.41025614,4083.84615350,164,4
2,16,4119.10256383,4106.53846126,4091.15384581,4115.25640998,4127.30769203,4122.05128178,4119.35897408,4062.69230728,4114.48717921,4114.48717921,4311.28205142,4119.10256383,4107.56410229,4098.20512786,171,13
5,16,4118.07692280,4105.12820485,4130.76923050,4118.33333306,4119.10256383,4125.25640998,4133.84615357,4086.15384581,4117.94871767,4114.87179460,4314.35897450,4143.97435877,4101.79487145,4088.33333299,202,12
6,16,4111.28205101,4098.33333299,4056.92307651,4112.30769203,4121.92307665,4133.58974332,4144.87179467,4095.12820478,4124.61538434,4119.87179460,4325.89743604,4097.94871761,4094.99999966,4084.10256376,34,13
14,16,4123.71794844,4120.38461511,4109.10256383,4120.89743562,4129.10256383,4126.02564075,4137.56410236,4080.51282017,4125.64102537,4125.76923050,4318.33333348,4102.30769196,4118.84615357,4095.51282017,132,4
19,16,4108.46153819,4109.23076896,4093.97435863,4109.35897408,4130.51282024,4150.64102544,4160.51282031,4115.64102537,4138.46153826,4132.56410229,4296.66666674,4083.20512786,4112.94871767,4075.64102530,0,0
20,16,4117.94871767,4118.07692280,4154.35897415,4128.07692280,4137.30769210,4136.92307672,4140.12820492,4105.25640998,4129.10256383,4129.10256383,4294.61538469,4149.10256390,4115.89743562,4084.61538427,0,0
28,16,4130.51282024,4124.23076896,4150.51282031,4136.53846133,4125.51282024,4139.74358954,4154.23076903,4084.48717914,4135.38461518,4133.71794844,4243.46153847,4148.97435877,4132.56410229,4100.76923043,0,0
33,16,4129.35897408,4122.69230742,4152.82051262,4138.33333313,4128.58974332,4134.10256383,4135.76923056,4086.53846119,4131.28205101,4138.33333313,4212.43589737,4150.89743569,4128.71794844,4095.51282017,0,0
34,16,4127.56410229,4121.02564075,4105.25640998,4126.66666639,4126.92307665,4137.82051262,4137.82051262,4086.41025607,4134.61538434,4140.76923056,4198.20512807,4109.74358947,4122.56410229,4091.66666632,0,0
41,16,4122.30769203,4121.41025614,4121.79487152,4121.02564075,4134.99999973,4148.58974339,4140.25641005,4057.17948677,4111.66666639,4118.97435870,4146.79487159,4136.53846133,4111.41025614,4087.43589709,0,0
42,16,4111.15384588,4102.94871767,4076.41025607,4105.76923050,4132.43589716,4151.53846133,4147.43589723,4059.74358933,4117.94871767,4124.99999973,4137.43589723,4094.99999966,4104.87179460,4078.84615350,0,0
46,16,4131.41025614,4128.58974332,4157.30769210,4133.84615357,4125.76923050,4151.28205108,4133.20512793,4069.87179453,4137.56410236,4149.74358954,4128.84615357,4166.53846133,4142.05128185,4100.12820478,0,0
53,16,4124.10256383,4115.51282024,4155.64102544,4127.30769203,4129.74358947,4149.48717928,4124.35897408,4024.99999952,4113.71794844,4131.92307665,4094.74358940,4146.41025621,4128.84615357,4095.12820478,0,0
54,16,4116.66666639,4108.84615357,4107.56410229,4116.15384588,4133.33333306,4165.25641005,4138.58974339,4041.15384574,4120.64102537,4132.56410229,4082.69230735,4111.79487152,4116.15384588,4084.10256376,0,0
58,16,4126.79487152,4127.82051255,4177.30769217,4147.17948697,4138.71794851,4149.99999980,4127.69230742,4042.94871754,4127.94871767,4134.61538434,4078.20512786,4143.33333313,4119.10256383,4090.25640991,0,0
67,16,4116.79487152,4113.20512793,4090.76923043,4116.79487152,4133.84615357,4133.71794844,4136.66666646,4018.20512772,4114.23076896,4113.46153819,4086.92307658,4082.05128171,4114.23076896,4088.84615350,237,13
68,16,4113.07692280,4111.92307665,4143.07692287,4123.84615357,4139.23076903,4125.38461511,4127.94871767,4013.71794824,4111.15384588,4106.66666639,4086.41025607,4126.28205101,4111.92307665,4084.23076889,242,13
70,16,4124.61538434,4118.97435870,4113.46153819,4120.64102537,4133.07692280,4132.94871767,4132.56410229,4029.35897388,4130.38461511,4127.43589716,4084.48717914,4116.92307665,4121.92307665,4093.58974325,34,13
79,16,4123.07692280,4120.25640998,4144.35897415,4126.92307665,4137.05128185,4127.69230742,4118.84615357,3991.79487124,4129.10256383,4123.07692280,4092.43589709,4133.46153819,4122.43589716,4096.66666632,237,13
80,16,4118.46153819,4116.02564075,4112.43589716,4114.10256383,4124.74358947,4127.82051255,4121.53846126,4008.46153798,4133.84615357,4122.94871767,4081.53846119,4117.43589716,4129.23076896,4090.51282017,175,13
87,16,4097.94871761,4106.79487152,4088.97435863,4108.33333306,4132.43589716,4127.82051255,4113.58974332,3996.66666611,4115.89743562,4114.87179460,4080.25640991,4089.61538427,4101.79487145,4080.64102530,237,13
88,16,4108.07692280,4111.79487152,4131.79487152,4117.05128178,4131.92307665,4131.66666639,4112.30769203,3998.33333278,4121.53846126,4121.92307665,4076.79487145,4104.74358947,4109.35897408,4088.58974325,175,13
91,16,4117.30769203,4124.61538434,4168.71794858,4128.07692280,4130.64102537,4135.76923056,4126.79487152,4015.38461490,4129.35897408,4132.94871767,4068.84615343,4177.30769217,4131.41025614,4102.17948684,237,13
100,16,4110.25640998,4113.71794844,4086.53846119,4112.82051255,4123.07692280,4122.30769203,4114.48717921,4044.35897395,4123.97435870,4120.64102537,4032.30769183,4098.20512786,4099.23076889,4072.94871761,175,13
104,16,4118.46153819,4124.61538434,4152.30769210,4129.23076896,4119.99999973,4116.28205101,4125.64102537,4062.94871754,4133.07692280,4129.87179460,4046.15384574,4142.43589723,4120.25640998,4089.23076889,175,13
107,16,4110.89743562,4113.07692280,4093.97435863,4114.23076896,4138.07692287,4123.07692280,4125.38461511,4086.02564068,4129.48717921,4127.69230742,4048.58974318,4109.48717921,4118.33333306,4082.17948684,237,13
108,16,4114.48717921,4115.64102537,4105.76923050,4121.53846126,4139.87179467,4125.12820485,4128.07692280,4096.66666632,4135.51282031,4136.79487159,4051.28205087,4099.10256376,4115.25640998,4083.20512786,175,13
112,16,4120.64102537,4119.48717921,4128.71794844,4127.56410229,4137.30769210,4115.64102537,4114.10256383,4080.25640991,4121.79487152,4122.17948691,4068.33333292,4116.79487152,4114.35897408,4089.48717914,175,13
116,16,4119.10256383,4120.64102537,4149.99999980,4119.87179460,4132.30769203,4127.69230742,4121.79487152,4062.05128164,4112.94871767,4119.74358947,4084.35897402,4141.15384595,4117.82051255,4084.10256376,175,13
124,16,4131.53846126,4123.07692280,4184.87179474,4125.89743562,4131.02564075,4121.53846126,4127.82051255,4048.07692266,4117.05128178,4136.41025621,4111.79487152,4146.92307672,4132.30769203,4094.74358940,175,13
1,16,4141.92307672,4136.41025621,4191.28205115,4145.76923056,4137.82051262,4118.97435870,4114.10256383,4051.02564061,4124.23076896,4144.99999980,4135.89743569,4149.23076903,4132.69230742,4097.43589709,242,13
2,16,4128.58974332,4127.69230742,4120.89743562,4127.94871767,4119.35897408,4125.51282024,4120.89743562,4054.74358933,4128.71794844,4139.74358954,4135.25640998,4114.35897408,4126.53846126,4085.51282017,163,13
9,16,4122.82051255,4120.64102537,4175.12820499,4128.33333306,4124.99999973,4124.61538434,4109.61538434,4020.25640977,4111.53846126,4127.69230742,4216.41025634,4142.17948697,4116.41025614,4079.99999966,242,13
10,16,4113.84615357,4115.51282024,4131.92307665,4116.28205101,4120.64102537,4125.64102537,4109.87179460,4024.10256362,4110.76923050,4126.28205101,4235.89743590,4086.28205094,4103.20512793,4062.56410215,147,4
51,16,4121.41025614,4112.56410229,4154.23076903,4127.94871767,4121.41025614,4118.07692280,4136.66666646,4289.23076930,4125.51282024,4126.02564075,4339.74358996,4124.87179460,4122.30769203,4081.41025607,0,0
52,16,4126.28205101,4117.56410229,4192.30769217,4129.23076896,4115.25640998,4115.89743562,4129.23076896,4292.82051289,4121.79487152,4118.71794844,4335.51282073,4161.15384595,4130.76923050,4089.74358940,0,0
86,16,4133.20512793,4111.92307665,4129.87179460,4120.89743562,4123.58974332,4129.10256383,4111.28205101,4277.05128212,4111.66666639,4112.17948691,4256.15384616,4101.79487145,4117.82051255,4080.12820478,104,4
30,16,4116.79487152,4117.82051255,4158.46153826,4108.46153819,4125.25640998,4109.61538434,4129.10256383,4038.07692266,4130.51282024,4122.17948691,4127.56410229,4132.69230742,4119.48717921,4086.79487145,0,0
35,16,4137.43589723,4131.28205101,4194.48717935,4123.71794844,4125.25640998,4119.10256383,4122.17948691,4028.33333285,4125.51282024,4125.76923050,4130.51282024,4148.58974339,4140.38461518,4107.30769203,0,0
36,16,4123.84615357,4121.79487152,4108.58974332,4106.28205101,4124.99999973,4128.46153819,4125.38461511,4021.66666618,4125.25640998,4114.48717921,4134.35897408,4081.79487145,4126.92307665,4095.38461504,0,0
43,16,4121.02564075,4130.64102537,4156.02564082,4119.23076896,4139.10256390,4137.43589723,4134.74358947,4067.56410215,4149.99999980,4143.97435877,4127.94871767,4106.15384588,4133.97435870,4096.41025607,0,0
44,16,4117.30769203,4123.46153819,4119.74358947,4107.30769203,4134.23076896,4138.33333313,4132.56410229,4070.12820478,4147.69230749,4139.74358954,4123.84615357,4081.92307658,4126.15384588,4086.02564068,0,0
52,16,4110.76923050,4116.28205101,4097.56410222,4099.35897402,4139.48717928,4142.05128185,4137.94871774,4033.33333285,4117.56410229,4121.15384588,4109.35897408,4065.76923036,4111.15384588,4082.17948684,0,0
55,16,4124.35897408,4125.89743562,4165.89743569,4113.20512793,4123.46153819,4134.74358947,4127.43589716,4057.69230728,4132.43589716,4132.17948691,4103.97435870,4139.23076903,4127.56410229,4096.66666632,0,0
56,16,4111.02564075,4121.28205101,4108.97435870,4103.58974332,4128.33333306,4136.28205108,4125.64102537,4059.61538420,4134.23076896,4136.28205108,4110.12820485,4096.41025607,4120.51282024,4087.30769196,0,0
60,16,4139.10256390,4136.15384595,4195.51282038,4128.20512793,4127.82051255,4133.71794844,4109.61538434,4072.56410222,4148.07692287,4160.25641005,4104.99999973,4161.02564082,4148.58974339,4113.58974332,0,0
64,16,4132.05128178,4123.20512793,4133.84615357,4104.10256383,4134.87179460,4151.79487159,4147.30769210,4100.38461504,4141.66666646,4148.20512800,4091.28205094,4093.84615350,4132.94871767,4096.66666632,48,14
105,16,4131.53846126,4135.12820485,4145.64102544,4123.71794844,4129.74358947,4122.30769203,4108.07692280,4015.64102516,4126.41025614,4135.38461518,3898.07692232,4119.35897408,4129.74358947,4091.15384581,70,13
106,16,4145.38461518,4145.76923056,4187.82051269,4137.94871774,4131.92307665,4113.58974332,4097.69230735,3997.82051227,4112.43589716,4126.41025614,3894.23076847,4166.28205108,4139.74358954,4109.10256383,120,4
33,16,4124.99999973,4123.84615357,4084.48717914,4113.97435870,4121.53846126,4123.58974332,4143.71794851,4552.94871858,4134.35897408,4135.12820485,3800.64102467,4130.25640998,4125.76923050,4103.84615357,0,0
34,16,4121.28205101,4121.53846126,4092.17948684,4112.43589716,4123.84615357,4112.69230742,4136.53846133,4561.41025704,4141.66666646,4138.33333313,3791.28205031,4131.28205101,4123.07692280,4104.10256383,0,0
100,16,4133.33333306,4124.61538434,4135.25640998,4094.99999966,4128.58974332,4143.58974339,4148.58974339,4292.56410264,4154.74358954,4176.02564089,4144.99999980,4144.74358954,4169.10256397,4120.38461511,222,13
5,16,4121.92307665,4114.74358947,4134.35897408,4095.89743555,4121.92307665,4123.97435870,4138.33333313,4065.38461497,4141.15384595,4139.74358954,4195.25641012,4125.12820485,4126.15384588,4081.15384581,121,12
6,16,4118.84615357,4113.33333306,4117.05128178,4091.53846119,4116.41025614,4132.94871767,4144.99999980,4059.23076882,4140.38461518,4141.41025621,4196.28205115,4109.74358947,4124.35897408,4080.76923043,16,13
14,16,4132.17948691,4132.17948691,4201.92307686,4130.12820485,4125.25640998,4112.56410229,4125.51282024,4017.94871747,4130.64102537,4138.07692287,4197.17948704,4141.41025621,4121.28205101,4084.35897402,147,4
19,16,4137.82051262,4144.23076903,4190.25641012,4139.99999980,4118.97435870,4119.61538434,4137.56410236,4015.25640977,4133.84615357,4148.20512800,4168.46153833,4147.30769210,4126.53846126,4092.43589709,0,0
20,16,4134.23076896,4138.97435877,4169.99999986,4130.38461511,4117.82051255,4117.43589716,4138.46153826,4013.07692259,4129.23076896,4139.10256390,4165.12820492,4142.56410236,4115.51282024,4089.48717914,0,0
27,16,4132.56410229,4143.84615364,4167.94871774,4132.56410229,4122.56410229,4125.64102537,4133.84615357,4036.41025593,4126.28205101,4139.74358954,4152.69230749,4142.05128185,4125.12820485,4089.23076889,0,0
28,16,4125.64102537,4135.12820485,4118.71794844,4121.79487152,4129.87179460,4135.25640998,4142.05128185,4036.92307651,4125.12820485,4127.17948691,4164.87179467,4099.35897402,4111.92307665,4078.71794837,0,0
36,16,4125.51282024,4140.51282031,4108.33333306,4128.46153819,4134.35897408,4112.17948691,4114.23076896,4056.66666625,4093.33333299,4105.51282024,4194.87179474,4100.38461504,4101.28205094,4080.76923043,0,0
39,16,4120.51282024,4138.71794851,4149.74358954,4131.92307665,4115.25640998,4101.66666632,4114.74358947,4064.48717907,4102.69230742,4112.05128178,4167.94871774,4121.79487152,4105.51282024,4073.58974325,0,0
40,16,4128.46153819,4146.79487159,4184.61538448,4142.69230749,4118.33333306,4098.46153812,4113.46153819,4070.38461504,4110.51282024,4119.10256383,4161.02564082,4157.69230749,4112.56410229,4083.33333299,0,0
49,16,4131.66666639,4151.92307672,4163.33333313,4143.20512800,4138.07692287,4117.30769203,4134.35897408,4113.33333306,4124.99999973,4134.99999973,4109.99999973,4123.20512793,4123.71794844,4084.48717914,0,0
50,16,4132.94871767,4153.97435877,4201.53846147,4148.20512800,4133.71794844,4111.53846126,4130.25640998,4109.74358947,4127.17948691,4130.64102537,4115.51282024,4173.46153833,4124.74358947,4089.23076889,0,0
58,16,4131.02564075,4138.33333313,4160.38461518,4133.58974332,4125.76923050,4114.48717921,4130.12820485,4118.71794844,4122.69230742,4123.20512793,4174.99999986,4129.35897408,4113.20512793,4093.97435863,0,0
61,16,4124.10256383,4141.28205108,4104.23076896,4135.76923056,4117.05128178,4122.43589716,4139.99999980,4127.30769203,4127.43589716,4121.28205101,4212.82051275,4105.76923050,4112.94871767,4090.12820478,0,0
62,16,4126.15384588,4143.58974339,4137.17948697,4135.51282031,4114.23076896,4116.28205101,4132.94871767,4125.25640998,4131.79487152,4121.41025614,4222.05128199,4122.94871767,4118.71794844,4095.64102530,0,0
70,16,4141.79487159,4153.97435877,4187.43589730,4151.15384595,4140.51282031,4121.66666639,4126.53846126,4069.74358940,4123.20512793,4117.94871767,4275.38461546,4163.84615364,4122.82051255,4094.35897402,31,13
75,16,4136.28205108,4143.58974339,4174.61538448,4139.10256390,4118.97435870,4116.28205101,4133.46153819,4041.92307651,4115.51282024,4111.02564075,4274.87179495,4146.02564082,4117.82051255,4091.66666632,206,13
76,16,4128.46153819,4138.84615364,4107.56410229,4129.74358947,4113.97435870,4120.89743562,4135.12820485,4041.66666625,4123.46153819,4109.74358947,4288.97435905,4113.33333306,4113.20512793,4089.35897402,226,13
83,16,4133.58974332,4178.71794858,4217.05128199,4238.71794872,4127.43589716,4113.20512793,4115.89743562,3998.58974304,4098.84615350,4088.20512786,4288.71794879,4152.17948697,4091.79487145,4075.76923043,206,13
84,16,4131.41025614,4181.15384602,4179.10256397,4239.87179488,4131.53846126,4115.64102537,4120.12820485,3999.10256355,4098.33333299,4085.25640991,4284.61538469,4112.69230742,4079.74358940,4066.28205087,226,13
91,16,4145.12820492,4178.71794858,4157.30769210,4224.74358968,4149.48717928,4125.25640998,4129.99999973,3955.76923015,4109.99999973,4096.02564068,4284.48717956,4134.74358947,4087.82051248,4084.99999966,206,13
92,16,4138.71794851,4166.66666646,4123.33333306,4211.02564096,4139.23076903,4121.66666639,4123.33333306,3944.99999938,4109.99999973,4098.97435863,4282.82051289,4108.46153819,4095.25640991,4083.84615350,226,13
99,16,4141.66666646,4169.61538448,4128.84615357,4204.99999993,4131.15384588,4126.41025614,4135.89743569,3926.02564033,4115.89743562,4099.87179453,4282.05128212,4094.23076889,4089.35897402,4080.64102530,206,13
100,16,4148.71794851,4178.07692294,4183.84615371,4215.38461532,4130.51282024,4120.12820485,4133.07692280,3918.33333264,4112.82051255,4102.82051255,4278.07692315,4143.84615364,4094.61538427,4088.33333299,226,13
106,16,4144.61538441,4161.02564082,4132.30769203,4190.76923063,4138.97435877,4136.41025621,4135.64102544,3920.51281982,4124.35897408,4103.20512793,4284.48717956,4142.94871774,4100.51282017,4087.56410222,125,4
109,16,4147.17948697,4163.46153826,4108.84615357,4192.69230756,4133.46153819,4129.48717921,4126.02564075,3931.92307623,4123.71794844,4112.43589716,4286.92307700,4117.30769203,4102.82051255,4088.71794837,73,13
110,16,4150.76923056,4171.79487166,4147.94871774,4195.51282038,4124.61538434,4125.25640998,4125.51282024,3932.82051213,4122.05128178,4109.99999973,4288.71794879,4150.12820492,4114.99999973,4092.82051248,125,4
119,16,4138.46153826,4161.66666646,4105.38461511,4188.71794858,4134.48717921,4123.71794844,4122.82051255,3962.94871733,4123.46153819,4116.79487152,4334.10256431,4107.82051255,4109.99999973,4080.38461504,206,13
120,16,4138.71794851,4166.41025621,4137.05128185,4195.76923063,4144.74358954,4131.66666639,4130.25640998,3969.10256348,4137.17948697,4124.61538434,4338.07692329,4139.87179467,4122.17948691,4083.33333299,226,13
0,16,4145.25641005,4147.94871774,4127.17948691,4166.02564082,4147.56410236,4122.56410229,4124.35897408,3974.99999945,4135.64102544,4119.23076896,4346.53846175,4124.74358947,4118.46153819,4098.07692273,174,13
3,16,4141.15384595,4140.51282031,4155.64102544,4145.89743569,4138.20512800,4125.12820485,4127.17948691,3981.53846099,4146.02564082,4133.71794844,4366.79487208,4162.69230749,4143.97435877,4094.99999966,232,13
4,16,4129.99999973,4125.25640998,4062.94871754,4115.51282024,4132.43589716,4130.76923050,4133.71794844,3985.51281996,4146.41025621,4140.51282031,4378.84615413,4086.66666632,4134.23076896,4085.76923043,68,14
12,16,4122.69230742,4122.94871767,4118.58974332,4126.15384588,4144.48717928,4116.41025614,4125.12820485,3977.17948663,4138.46153826,4123.20512793,4357.69230790,4108.58974332,4129.99999973,4079.48717914,222,13
17,16,4114.74358947,4111.79487152,4112.94871767,4110.76923050,4143.07692287,4119.87179460,4129.87179460,3968.71794810,4136.41025621,4112.69230742,4346.28205149,4102.05128171,4130.51282024,4073.97435863,0,0
18,16,4126.53846126,4122.82051255,4158.33333313,4120.51282024,4132.05128178,4113.33333306,4126.53846126,3966.02564040,4135.64102544,4116.92307665,4354.61538483,4162.43589723,4139.61538441,4087.94871761,0,0
25,16,4123.71794844,4125.25640998,4113.58974332,4124.87179460,4133.46153819,4104.99999973,4122.82051255,3927.05128136,4120.89743562,4105.76923050,4352.82051303,4102.17948684,4126.28205101,4078.97435863,0,0
26,16,4121.66666639,4123.58974332,4145.76923056,4133.46153819,4126.79487152,4109.99999973,4123.71794844,3924.35897367,4115.12820485,4107.82051255,4343.20512842,4120.89743562,4126.79487152,4078.33333299,0,0
35,16,4120.76923050,4116.41025614,4096.28205094,4122.82051255,4139.23076903,4125.12820485,4132.56410229,3919.74358905,4135.76923056,4119.48717921,4339.35897457,4100.12820478,4121.66666639,4074.87179453,0,0
36,16,4123.84615357,4126.53846126,4143.07692287,4130.64102537,4136.79487159,4122.56410229,4128.71794844,3919.23076854,4131.41025614,4116.66666639,4330.64102578,4130.64102537,4124.74358947,4072.94871761,0,0
40,16,4126.66666639,4125.25640998,4093.33333299,4128.58974332,4140.38461518,4134.48717921,4136.15384595,3921.79487110,4137.30769210,4128.07692280,4332.69230790,4097.05128171,4130.89743562,4080.64102530,0,0
43,16,4156.15384595,4151.53846133,4169.87179474,4154.35897415,4149.61538441,4143.71794851,4137.94871774,3922.17948649,4140.89743569,4142.56410236,4323.33333348,4177.56410243,4150.12820492,4101.66666632,0,0
52,16,4127.43589716,4118.97435870,4089.61538427,4122.94871767,4141.02564082,4136.66666646,4130.76923050,3895.76923001,4120.25640998,4119.48717921,4301.41025655,4099.10256376,4120.38461511,4069.99999966,0,0
57,16,4151.15384595,4135.51282031,4113.71794844,4137.82051262,4132.30769203,4147.56410236,4136.79487159,3896.15384539,4129.99999973,4137.17948697,4300.76923091,4143.33333313,4156.79487159,4103.20512793,0,0
58,16,4160.76923056,4140.25641005,4152.43589723,4144.10256390,4143.97435877,4147.30769210,4137.30769210,3904.48717873,4144.48717928,4148.20512800,4292.82051289,4179.35897422,4160.76923056,4112.56410229,0,0
65,16,4120.64102537,4103.84615357,4077.69230735,4104.48717921,4120.38461511,4133.07692280,4118.46153819,3879.87179411,4113.33333306,4117.17948691,4252.82051282,4082.82051248,4112.69230742,4072.05128171,244,13
66,16,4124.87179460,4116.02564075,4152.17948697,4119.74358947,4119.74358947,4128.07692280,4116.53846126,3878.33333257,4114.23076896,4118.07692280,4237.05128206,4133.97435870,4124.23076896,4074.99999966,220,13
74,16,4128.97435870,4129.23076896,4132.56410229,4128.20512793,4128.97435870,4134.61538434,4120.76923050,3896.41025565,4128.20512793,4124.99999973,4175.76923063,4165.38461518,4137.30769210,4094.10256376,94,4
77,16,4127.17948691,4120.64102537,4082.30769196,4117.94871767,4119.87179460,4138.58974339,4127.43589716,3893.33333257,4120.51282024,4118.46153819,4144.74358954,4114.61538434,4129.35897408,4081.66666632,114,13
78,16,4133.71794844,4122.56410229,4088.33333299,4116.02564075,4130.25640998,4141.28205108,4130.64102537,3896.66666591,4125.76923050,4123.97435870,4134.10256383,4130.25640998,4134.23076896,4087.05128171,94,4
87,16,4149.10256390,4133.58974332,4121.28205101,4130.38461511,4133.58974332,4161.02564082,4141.02564082,3910.64102495,4138.58974339,4143.07692287,4120.64102537,4148.97435877,4156.92307672,4112.05128178,232,13
88,16,4146.28205108,4125.38461511,4098.71794837,4121.92307665,4130.38461511,4161.15384595,4139.87179467,3908.20512751,4134.87179460,4144.61538441,4110.64102537,4138.58974339,4151.28205108,4102.56410229,230,13
93,16,4138.33333313,4130.38461511,4103.97435870,4128.58974332,4135.89743569,4155.51282031,4138.46153826,3913.33333264,4142.69230749,4143.58974339,4100.51282017,4145.89743569,4143.97435877,4087.05128171,114,13
94,16,4150.64102544,4137.56410236,4155.76923056,4141.41025621,4142.43589723,4158.46153826,4139.61538441,3914.23076854,4144.48717928,4156.28205108,4106.02564075,4193.20512807,4159.74358954,4101.79487145,94,4
100,16,4147.05128185,4133.58974332,4084.23076889,4129.10256383,4146.92307672,4152.94871774,4144.23076903,3924.35897367,4139.87179467,4137.30769210,4081.28205094,4118.58974332,4148.97435877,4099.99999966,230,13
104,16,4147.82051262,4137.17948697,4146.79487159,4139.23076903,4147.17948697,4149.74358954,4135.51282031,3919.99999931,4142.69230749,4138.33333313,4037.43589702,4185.12820499,4145.76923056,4101.53846119,230,13
109,16,4154.87179467,4143.84615364,4144.61538441,4144.87179467,4152.05128185,4149.87179467,4142.69230749,3927.17948649,4146.28205108,4142.05128185,4004.61538413,4191.79487166,4160.64102544,4103.58974332,114,13
110,16,4152.05128185,4136.66666646,4081.79487145,4137.94871774,4149.74358954,4153.71794851,4152.17948697,3937.56410187,4147.43589723,4141.53846133,4007.17948670,4133.97435870,4149.35897415,4097.43589709,94,4
112,16,4151.02564082,4140.51282031,4151.79487159,4143.97435877,4139.74358954,4149.10256390,4145.51282031,3934.35897367,4142.05128185,4133.46153819,3992.82051227,4158.71794851,4146.92307672,4099.48717914,230,13
121,16,4146.79487159,4141.02564082,4086.79487145,4138.46153826,4150.64102544,4147.69230749,4150.89743569,3979.61538406,4156.15384595,4146.02564082,4040.12820472,4117.69230742,4146.28205108,4097.43589709,114,13
122,16,4148.58974339,4143.20512800,4141.02564082,4145.25641005,4149.61538441,4145.38461518,4146.28205108,3978.07692252,4149.61538441,4146.41025621,4040.64102523,4161.02564082,4154.23076903,4101.53846119,94,4
1,16,4157.30769210,4154.10256390,4135.38461518,4147.30769210,4149.48717928,4132.56410229,4138.20512800,3990.51281996,4137.43589723,4135.64102544,4091.79487145,4185.12820499,4150.51282031,4110.25640998,236,13
2,16,4155.38461518,4151.92307672,4113.58974332,4149.35897415,4144.23076903,4137.69230749,4144.48717928,3994.87179432,4143.84615364,4146.79487159,4108.71794844,4160.76923056,4150.51282031,4111.53846126,168,13
6,16,4169.23076910,4157.94871774,4143.20512800,4148.84615364,4134.23076896,4135.64102544,4147.43589723,4012.69230721,4149.48717928,4154.48717928,4117.82051255,4186.02564089,4166.15384595,4120.64102537,25,13
15,16,4147.43589723,4140.76923056,4092.69230735,4128.84615357,4134.35897408,4139.35897415,4139.10256390,4010.89743541,4136.53846133,4147.82051262,4145.12820492,4127.82051255,4142.43589723,4103.07692280,218,13
16,16,4156.28205108,4147.17948697,4130.89743562,4137.56410236,4140.64102544,4142.17948697,4141.92307672,4012.30769183,4140.25641005,4155.89743569,4150.76923056,4178.07692294,4159.48717928,4113.58974332,0,0
18,16,4144.74358954,4141.92307672,4099.74358940,4130.12820485,4126.92307665,4131.28205101,4138.58974339,4016.02564054,4136.28205108,4151.41025621,4175.12820499,4106.53846126,4141.41025621,4102.56410229,0,0
28,16,4137.05128185,4128.58974332,4112.56410229,4111.53846126,4127.56410229,4125.76923050,4123.71794844,4013.97435849,4126.79487152,4152.94871774,4217.56410250,4123.58974332,4163.71794851,4107.94871767,0,0
31,16,4140.64102544,4116.02564075,4134.87179460,4076.41025607,4118.07692280,4130.25640998,4134.23076896,4020.12820465,4149.10256390,4177.69230756,4224.23076917,4193.97435884,4192.94871781,4118.97435870,0,0
32,16,4134.87179460,4105.51282024,4156.79487159,4062.94871754,4108.58974332,4132.43589716,4133.07692280,4013.84615336,4137.30769210,4171.79487166,4230.38461532,4202.82051275,4184.10256397,4115.51282024,0,0
40,16,4152.56410236,4123.58974332,4157.56410236,4081.41025607,4126.02564075,4132.56410229,4145.76923056,4057.94871754,4148.97435877,4176.15384602,4228.97435891,4173.71794858,4195.51282038,4127.94871767,0,0
45,16,4146.15384595,4126.41025614,4162.43589723,4085.38461504,4123.46153819,4134.61538434,4147.94871774,4059.99999959,4146.02564082,4175.51282038,4216.66666660,4166.66666646,4188.97435884,4118.71794844,0,0
46,16,4134.74358947,4113.84615357,4118.58974332,4065.89743548,4127.69230742,4141.41025621,4148.58974339,4057.05128164,4137.05128185,4159.61538441,4209.10256404,4156.02564082,4170.25641012,4109.10256383,0,0
53,16,4142.69230749,4120.89743562,4108.07692280,4081.41025607,4129.74358947,4143.97435877,4156.66666646,4071.41025607,4144.48717928,4182.82051269,4225.25641019,4132.43589716,4181.02564089,4113.84615357,0,0
54,16,4151.15384595,4131.28205101,4158.46153826,4095.76923043,4132.43589716,4143.20512800,4150.25641005,4077.30769196,4145.38461518,4186.28205115,4219.87179481,4152.82051262,4187.43589730,4122.56410229,0,0
62,16,4132.82051255,4120.76923050,4154.87179467,4092.69230735,4121.92307665,4131.15384588,4135.89743569,4076.53846119,4138.84615364,4181.02564089,4193.20512807,4189.74358961,4176.92307679,4100.64102530,0,0
65,16,4137.17948697,4127.17948691,4189.48717935,4110.64102537,4136.79487159,4135.12820485,4143.58974339,4106.53846126,4152.69230749,4178.20512807,4195.38461525,4181.79487166,4176.79487166,4108.07692280,239,13
66,16,4135.51282031,4121.66666639,4126.41025614,4093.58974325,4129.74358947,4135.89743569,4149.10256390,4111.92307665,4154.99999980,4178.71794858,4192.17948704,4140.76923056,4169.74358961,4102.94871767,151,13
73,16,4132.17948691,4126.53846126,4112.94871767,4100.12820478,4137.30769210,4147.43589723,4151.79487159,4111.92307665,4139.87179467,4163.33333313,4188.33333320,4129.61538434,4156.02564082,4090.89743555,249,13
74,16,4132.17948691,4128.07692280,4134.23076896,4109.87179460,4143.97435877,4148.33333313,4154.48717928,4125.64102537,4146.41025621,4166.53846133,4192.05128192,4126.28205101,4147.05128185,4088.46153812,95,4
76,16,4136.92307672,4125.76923050,4122.30769203,4101.15384581,4125.89743562,4143.97435877,4151.92307672,4139.61538441,4155.76923056,4167.69230749,4181.79487166,4139.10256390,4170.12820499,4100.76923043,214,13
79,16,4142.43589723,4121.53846126,4123.46153819,4106.02564075,4132.43589716,4137.94871774,4148.97435877,4129.99999973,4135.76923056,4156.79487159,4186.28205115,4113.46153819,4149.48717928,4099.99999966,201,13
89,16,4133.58974332,4127.56410229,4128.97435870,4113.33333306,4130.25640998,4141.66666646,4138.97435877,4152.05128185,4141.15384595,4155.89743569,4171.02564089,4113.58974332,4140.38461518,4096.28205094,62,13
90,16,4148.33333313,4142.94871774,4189.99999986,4135.51282031,4149.10256390,4142.56410236,4148.33333313,4157.69230749,4152.69230749,4164.74358954,4163.84615364,4182.56410243,4165.89743569,4110.38461511,95,4
98,16,4138.46153826,4130.51282024,4136.92307672,4116.02564075,4139.99999980,4136.41025621,4135.76923056,4154.48717928,4137.56410236,4144.35897415,4161.79487159,4163.46153826,4151.53846133,4105.51282024,95,4
101,16,4132.43589716,4119.23076896,4086.41025607,4105.12820485,4132.05128178,4138.84615364,4138.71794851,4171.92307679,4149.10256390,4159.10256390,4156.41025621,4126.92307665,4143.07692287,4099.74358940,62,13
102,16,4121.41025614,4117.43589716,4099.23076889,4102.30769196,4121.92307665,4133.71794844,4135.38461518,4153.58974339,4135.25640998,4148.46153826,4145.64102544,4146.15384595,4136.66666646,4092.56410222,95,4
110,16,4142.05128185,4143.33333313,4177.43589730,4152.43589723,4149.23076903,4131.79487152,4132.69230742,4150.38461518,4135.12820485,4134.35897408,4143.97435877,4151.02564082,4140.64102544,4096.53846119,95,4
115,16,4126.15384588,4144.61538441,4145.89743569,4166.53846133,4152.69230749,4129.10256383,4135.38461518,4141.02564082,4134.23076896,4125.25640998,4120.38461511,4115.12820485,4111.79487152,4082.43589709,201,13
116,16,4121.92307665,4140.51282031,4109.87179460,4157.43589723,4151.41025621,4135.25640998,4140.76923056,4137.56410236,4132.43589716,4130.64102537,4121.79487152,4107.94871767,4112.30769203,4082.69230735,214,13
123,16,4125.76923050,4139.99999980,4148.71794851,4163.33333313,4156.53846133,4140.38461518,4144.87179467,4120.25640998,4137.69230749,4133.84615357,4123.20512793,4151.15384595,4122.17948691,4084.35897402,201,13
124,16,4115.51282024,4131.41025614,4087.69230735,4148.58974339,4143.84615364,4145.51282031,4144.99999980,4121.53846126,4135.64102544,4138.58974339,4136.66666646,4079.48717914,4108.84615357,4077.05128171,214,13
3,16,4129.74358947,4145.12820492,4158.97435877,4162.05128185,4147.05128185,4136.92307672,4143.07692287,4083.71794837,4123.84615357,4128.46153819,4118.33333306,4143.20512800,4122.56410229,4084.48717914,237,13
4,16,4131.41025614,4144.99999980,4117.17948691,4154.23076903,4140.12820492,4145.12820492,4147.43589723,4081.02564068,4125.76923050,4132.82051255,4114.48717921,4126.28205101,4124.23076896,4088.46153812,238,13
11,16,4129.61538434,4140.25641005,4113.07692280,4157.17948697,4150.51282031,4130.38461511,4134.61538434,4073.84615350,4130.51282024,4132.69230742,4099.48717914,4096.53846119,4109.10256383,4084.61538427,230,13
12,16,4140.64102544,4152.05128185,4160.25641005,4168.20512807,4149.99999980,4132.56410229,4133.71794844,4073.71794837,4136.79487159,4139.61538441,4091.92307658,4123.07692280,4117.30769203,4092.05128171,228,13
15,16,4144.35897415,4160.12820492,4175.25641012,4176.41025628,4146.79487159,4137.30769210,4150.12820492,4067.43589702,4135.12820485,4141.02564082,4080.25640991,4177.43589730,4126.53846126,4091.66666632,230,13
24,16,4130.89743562,4137.30769210,4116.15384588,4150.38461518,4132.94871767,4140.64102544,4139.87179467,4062.17948677,4121.15384588,4134.48717921,4106.15384588,4115.38461511,4116.02564075,4082.05128171,0,0
28,16,4148.58974339,4152.43589723,4181.79487166,4166.15384595,4146.28205108,4131.15384588,4134.74358947,4056.15384574,4119.10256383,4121.79487152,4113.97435870,4154.48717928,4118.20512793,4092.30769196,0,0
33,16,4144.99999980,4152.30769210,4178.07692294,4172.43589730,4143.33333313,4136.53846133,4136.41025621,4051.92307651,4123.71794844,4122.05128178,4118.71794844,4170.25641012,4127.43589716,4091.92307658,0,0
34,16,4129.99999973,4132.56410229,4088.20512786,4143.58974339,4144.61538441,4135.76923056,4135.64102544,4046.92307651,4121.41025614,4116.79487152,4112.94871767,4115.89743562,4106.41025614,4079.23076889,0,0
41,16,4141.15384595,4154.61538441,4143.20512800,4169.74358961,4137.43589723,4130.89743562,4133.97435870,4039.87179446,4120.38461511,4112.69230742,4104.35897408,4134.23076896,4106.28205101,4085.51282017,0,0
42,16,4139.99999980,4149.23076903,4123.46153819,4168.33333320,4145.25641005,4134.99999973,4135.38461518,4042.82051241,4122.17948691,4116.41025614,4103.71794844,4094.99999966,4101.15384581,4081.15384581,0,0
49,16,4130.51282024,4145.12820492,4098.33333299,4159.87179467,4135.12820485,4143.58974339,4134.74358947,4060.38461497,4123.07692280,4119.35897408,4107.94871767,4116.92307665,4110.25640998,4084.87179453,0,0
50,16,4132.30769203,4144.35897415,4127.82051255,4158.71794851,4148.84615364,4143.20512800,4138.07692287,4058.84615343,4126.53846126,4119.87179460,4099.35897402,4142.82051262,4119.48717921,4092.05128171,0,0
52,16,4137.94871774,4145.89743569,4116.15384588,4161.53846133,4137.56410236,4144.35897415,4137.17948697,4074.99999966,4126.79487152,4120.38461511,4115.51282024,4099.87179453,4114.35897408,4089.48717914,0,0
59,16,4137.94871774,4146.41025621,4108.58974332,4161.53846133,4141.41025621,4148.71794851,4141.79487159,4117.56410229,4126.28205101,4118.71794844,4112.56410229,4132.05128178,4121.79487152,4092.30769196,0,0
60,16,4132.94871767,4145.76923056,4102.94871767,4157.05128185,4137.43589723,4143.97435877,4134.87179460,4114.74358947,4126.41025614,4120.64102537,4108.84615357,4140.64102544,4120.12820485,4093.46153812,0,0
67,16,4128.33333306,4136.79487159,4102.69230742,4149.74358954,4138.20512800,4157.69230749,4138.71794851,4158.97435877,4123.71794844,4119.87179460,4114.48717921,4082.94871761,4103.84615357,4080.25640991,243,13
68,16,4140.89743569,4148.58974339,4161.92307672,4164.74358954,4135.12820485,4153.33333313,4136.79487159,4158.97435877,4122.05128178,4124.23076896,4112.30769203,4144.61538441,4116.41025614,4091.92307658,241,13
75,16,4143.97435877,4143.97435877,4109.87179460,4151.28205108,4141.02564082,4169.87179474,4138.84615364,4181.79487166,4125.89743562,4121.53846126,4106.92307665,4136.79487159,4124.74358947,4090.89743555,244,13
76,16,4139.10256390,4144.48717928,4152.43589723,4159.61538441,4144.48717928,4158.33333313,4129.74358947,4176.41025628,4120.12820485,4114.35897408,4107.05128178,4161.53846133,4118.46153819,4095.38461504,7,14
80,16,4142.17948697,4146.15384595,4109.99999973,4152.56410236,4129.87179460,4167.17948697,4138.07692287,4177.17948704,4122.56410229,4124.87179460,4107.69230742,4133.58974332,4123.71794844,4097.05128171,7,14
83,16,4149.99999980,4154.35897415,4168.46153833,4170.38461525,4144.35897415,4163.46153826,4128.46153819,4180.64102551,4123.46153819,4125.25640998,4113.71794844,4145.51282031,4132.43589716,4105.76923050,244,13
92,16,4138.46153826,4139.35897415,4097.30769196,4144.35897415,4126.02564075,4151.66666646,4124.87179460,4163.07692287,4112.43589716,4113.46153819,4106.92307665,4113.20512793,4120.12820485,4091.66666632,7,14
99,16,4155.76923056,4148.84615364,4182.69230756,4161.02564082,4132.43589716,4152.69230749,4131.92307665,4166.53846133,4138.07692287,4141.02564082,4087.17948684,4167.94871774,4142.56410236,4112.17948691,244,13
100,16,4133.84615357,4125.12820485,4097.30769196,4127.30769203,4117.82051255,4147.43589723,4126.92307665,4156.92307672,4121.15384588,4126.66666639,4077.56410222,4114.10256383,4116.66666639,4096.15384581,7,14
6,16,4141.79487159,4137.17948697,4157.43589723,4161.28205108,4133.58974332,4127.82051255,4123.33333306,4157.43589723,4137.30769210,4127.69230742,4014.99999952,4154.48717928,4129.87179460,4097.94871761,31,13
119,16,4129.10256383,4124.99999973,4088.84615350,4114.74358947,4140.64102544,4133.58974332,4137.69230749,4288.97435905,4156.92307672,4139.48717928,4135.51282031,4113.71794844,4145.89743569,4120.25640998,217,13
120,16,4136.79487159,4134.35897408,4142.17948697,4131.28205101,4134.23076896,4131.41025614,4132.30769203,4272.82051289,4147.69230749,4137.17948697,4137.56410236,4159.10256390,4154.87179467,4126.53846126,233,13
127,16,4139.87179467,4138.97435877,4133.07692280,4139.61538441,4143.84615364,4147.94871774,4135.89743569,4249.61538462,4158.33333313,4155.51282031,4143.07692287,4132.05128178,4142.05128185,4110.64102537,57,0
0,16,4139.99999980,4141.41025621,4175.12820499,4142.43589723,4143.33333313,4148.33333313,4137.69230749,4250.51282052,4156.66666646,4147.82051262,4144.48717928,4150.64102544,4155.12820492,4116.41025614,182,13
9,16,4122.05128178,4130.64102537,4125.64102537,4130.12820485,4135.12820485,4139.74358954,4125.89743562,4195.38461525,4144.74358954,4143.58974339,4139.74358954,4111.28205101,4133.46153819,4096.15384581,253,13
10,16,4128.84615357,4138.84615364,4164.35897415,4142.56410236,4141.66666646,4140.12820492,4130.64102537,4192.43589730,4152.17948697,4149.87179467,4143.07692287,4147.82051262,4143.20512800,4104.35897408,98,4
14,16,4128.46153819,4138.46153826,4125.51282024,4132.05128178,4144.99999980,4158.58974339,4138.20512800,4183.71794858,4157.69230749,4150.89743569,4139.99999980,4121.02564075,4146.02564082,4098.58974325,98,4
24,16,4118.58974332,4124.99999973,4105.38461511,4119.48717921,4136.53846133,4145.25641005,4127.94871767,4143.07692287,4133.20512793,4131.15384588,4139.23076903,4098.07692273,4117.17948691,4086.79487145,0,0
27,16,4119.10256383,4124.61538434,4121.66666639,4115.38461511,4141.41025621,4138.07692287,4133.71794844,4131.41025614,4131.41025614,4133.07692280,4132.69230742,4145.76923056,4125.76923050,4094.48717914,0,0
28,16,4111.79487152,4118.46153819,4121.02564075,4112.30769203,4136.66666646,4138.97435877,4133.46153819,4140.12820492,4138.97435877,4138.33333313,4137.43589723,4123.20512793,4122.82051255,4087.30769196,0,0
32,16,4117.94871767,4121.41025614,4124.74358947,4113.97435870,4142.94871774,4133.71794844,4125.25640998,4112.17948691,4137.05128185,4147.94871774,4143.20512800,4162.05128185,4148.07692287,4102.17948684,0,0
36,16,4127.17948691,4125.25640998,4091.28205094,4110.64102537,4129.99999973,4130.51282024,4128.84615357,4114.87179460,4140.76923056,4134.87179460,4153.97435877,4123.84615357,4136.92307672,4097.82051248,0,0
43,16,4139.74358954,4141.66666646,4159.35897415,4126.53846126,4144.74358954,4119.35897408,4131.41025614,4090.89743555,4135.51282031,4149.74358954,4150.25641005,4163.58974339,4147.17948697,4112.05128178,0,0
44,16,4126.41025614,4133.71794844,4117.94871767,4116.66666639,4136.53846133,4124.35897408,4132.17948691,4094.35897402,4145.76923056,4151.41025621,4153.58974339,4105.89743562,4138.97435877,4098.71794837,0,0
51,16,4128.20512793,4141.28205108,4103.46153819,4121.53846126,4141.53846133,4122.30769203,4142.17948697,4089.74358940,4148.84615364,4140.25641005,4129.74358947,4139.87179467,4142.30769210,4098.97435863,0,0
52,16,4133.97435870,4140.51282031,4097.05128171,4124.23076896,4157.82051262,4124.61538434,4136.53846133,4083.84615350,4152.56410236,4145.25641005,4127.05128178,4147.56410236,4150.64102544,4106.66666639,0,0
60,16,4135.76923056,4138.33333313,4166.79487159,4134.48717921,4152.05128185,4122.17948691,4127.30769203,4077.43589709,4149.74358954,4139.10256390,4127.69230742,4148.97435877,4135.38461518,4099.74358940,0,0
63,16,4135.51282031,4140.64102544,4145.12820492,4132.17948691,4144.87179467,4116.28205101,4123.46153819,4059.10256369,4129.35897408,4124.99999973,4133.71794844,4157.17948697,4133.58974332,4102.82051255,0,0
64,16,4122.69230742,4128.58974332,4094.35897402,4121.28205101,4154.74358954,4123.20512793,4132.94871767,4068.46153805,4134.10256383,4125.38461511,4140.51282031,4092.82051248,4119.87179460,4088.46153812,172,13
72,16,4140.38461518,4148.58974339,4117.30769203,4136.41025621,4150.12820492,4123.71794844,4133.97435870,4088.58974325,4142.43589723,4131.92307665,4180.51282038,4136.41025621,4132.05128178,4102.82051255,128,13
77,16,4134.48717921,4157.56410236,4120.51282024,4161.66666646,4146.79487159,4115.89743562,4125.64102537,4091.41025607,4131.79487152,4127.30769203,4182.17948704,4118.97435870,4120.89743562,4101.79487145,71,13
78,16,4147.05128185,4171.79487166,4173.58974345,4181.53846140,4152.94871774,4119.87179460,4120.89743562,4086.28205094,4132.05128178,4131.02564075,4185.38461525,4166.02564082,4130.64102537,4111.41025614,79,4
85,16,4137.94871774,4152.56410236,4156.15384595,4164.61538441,4149.10256390,4135.51282031,4128.46153819,4104.87179460,4142.94871774,4133.20512793,4201.15384609,4109.99999973,4120.89743562,4097.56410222,71,13
86,16,4138.33333313,4152.82051262,4187.94871781,4167.69230749,4141.79487159,4127.94871767,4125.12820485,4099.74358940,4130.89743562,4130.38461511,4196.66666653,4137.30769210,4121.02564075,4099.35897402,79,4
93,16,4142.82051262,4152.69230749,4143.58974339,4170.38461525,4155.12820492,4160.25641005,4139.48717928,4115.51282024,4154.74358954,4148.84615364,4208.46153840,4140.64102544,4135.38461518,4110.76923050,71,13
94,16,4136.41025621,4136.41025621,4105.25640998,4159.23076903,4144.48717928,4162.17948697,4139.74358954,4119.23076896,4155.25641005,4145.76923056,4219.48717942,4083.58974325,4130.51282024,4104.87179460,79,4
103,16,4128.46153819,4121.53846126,4113.33333306,4141.92307672,4151.15384595,4155.12820492,4127.05128178,4077.05128171,4123.97435870,4113.33333306,4196.66666653,4104.10256383,4106.02564075,4089.48717914,3,14
104,16,4131.02564075,4128.46153819,4107.43589716,4147.69230749,4161.28205108,4161.66666646,4135.38461518,4089.87179453,4136.53846133,4121.02564075,4210.89743583,4083.33333299,4115.51282024,4094.23076889,235,13
111,16,4127.82051255,4119.87179460,4172.69230756,4179.10256397,4178.20512807,4146.79487159,4128.58974332,4082.17948684,4142.43589723,4136.79487159,4212.56410250,4121.92307665,4124.61538434,4099.10256376,3,14
112,16,4117.69230742,4110.76923050,4087.69230735,4158.97435877,4178.20512807,4154.99999980,4132.30769203,4082.69230735,4144.74358954,4132.17948691,4212.82051275,4084.10256376,4119.87179460,4091.28205094,235,13
119,16,4124.74358947,4127.17948691,4144.10256390,4181.15384602,4213.58974352,4146.66666646,4129.48717921,4079.99999966,4143.71794851,4135.51282031,4214.48717942,4106.53846126,4118.58974332,4088.84615350,3,14
120,16,4129.48717921,4123.97435870,4114.99999973,4177.82051269,4217.05128199,4144.48717928,4133.33333306,4085.51282017,4146.41025621,4134.87179460,4216.53846147,4055.51282010,4110.64102537,4085.12820478,235,13
124,16,4126.02564075,4119.48717921,4140.38461518,4177.56410243,4221.79487173,4127.82051255,4130.76923050,4076.02564068,4131.15384588,4135.89743569,4218.07692301,4118.84615357,4128.97435870,4089.99999966,235,13
127,16,4133.84615357,4127.17948691,4114.48717921,4185.38461525,4256.28205129,4156.92307672,4161.92307672,4112.05128178,4166.66666646,4157.94871774,4218.46153840,4104.74358947,4131.66666639,4094.74358940,57,0
9,16,4140.38461518,4134.23076896,4125.12820485,4178.20512807,4223.97435891,4138.33333313,4150.12820492,4078.20512786,4145.76923056,4149.23076903,4213.46153840,4112.94871767,4133.71794844,4096.66666632,2,14
10,16,4128.84615357,4116.41025614,4102.17948684,4164.35897415,4222.56410250,4141.41025621,4142.94871774,4078.33333299,4148.71794851,4149.61538441,4208.97435891,4108.84615357,4132.94871767,4089.99999966,85,4
17,16,4127.43589716,4123.84615357,4123.20512793,4166.92307672,4213.71794865,4131.66666639,4135.25640998,4073.71794837,4136.79487159,4136.92307672,4213.58974352,4073.33333299,4120.76923050,4079.23076889,0,0
18,16,4137.30769210,4135.76923056,4190.25641012,4177.17948704,4205.89743583,4125.64102537,4127.17948691,4064.61538420,4133.07692280,4135.12820485,4208.20512814,4114.74358947,4127.56410229,4087.43589709,0,0
25,16,4119.35897408,4114.35897408,4121.92307665,4142.82051262,4209.61538455,4134.10256383,4133.20512793,4075.64102530,4135.76923056,4123.33333306,4192.05128192,4095.89743555,4116.28205101,4084.10256376,0,0
26,16,4135.76923056,4131.53846126,4177.17948704,4160.25641005,4206.92307686,4121.15384588,4123.07692280,4067.69230728,4135.25640998,4127.30769203,4197.82051269,4148.58974339,4127.05128178,4099.87179453,0,0
33,16,4140.89743569,4133.71794844,4163.97435877,4163.33333313,4191.53846140,4134.99999973,4131.92307665,4073.71794837,4142.69230749,4125.12820485,4198.97435884,4117.30769203,4132.82051255,4095.12820478,0,0
34,16,4147.69230749,4136.28205108,4186.66666653,4159.35897415,4198.07692294,4135.76923056,4138.46153826,4083.07692273,4153.71794851,4131.02564075,4196.66666653,4135.89743569,4132.56410229,4100.64102530,0,0
42,16,4149.99999980,4137.69230749,4116.28205101,4132.94871767,4174.35897422,4125.38461511,4124.61538434,4065.25640984,4141.79487159,4130.64102537,4194.99999986,4101.02564068,4129.48717921,4112.17948691,0,0
45,16,4138.84615364,4130.64102537,4131.53846126,4120.64102537,4163.84615364,4145.89743569,4139.48717928,4084.74358940,4150.76923056,4141.92307672,4202.82051275,4131.53846126,4146.28205108,4102.43589709,0,0
46,16,4142.94871774,4135.25640998,4167.56410236,4119.74358947,4170.25641012,4142.56410236,4135.76923056,4089.61538427,4157.82051262,4140.76923056,4202.30769224,4167.82051262,4155.76923056,4111.92307665,0,0
54,16,4133.33333306,4135.12820485,4200.12820499,4120.12820485,4135.25640998,4110.51282024,4109.23076896,4048.84615343,4111.28205101,4121.02564075,4195.38461525,4139.74358954,4135.25640998,4092.05128171,0,0
59,16,4111.02564075,4119.99999973,4180.76923063,4111.66666639,4131.79487152,4112.82051255,4127.17948691,4097.94871761,4151.92307672,4140.25641005,4189.74358961,4132.05128178,4136.28205108,4072.43589709,0,0
60,16,4110.76923050,4116.66666639,4106.53846126,4095.76923043,4127.82051255,4118.58974332,4132.94871767,4099.35897402,4153.20512800,4140.38461518,4183.58974345,4101.15384581,4130.76923050,4073.33333299,0,0
67,16,4114.99999973,4114.74358947,4154.61538441,4103.84615357,4104.10256383,4103.07692280,4110.64102537,4036.53846106,4110.12820485,4121.79487152,4183.20512807,4140.25641005,4137.17948697,4083.84615350,243,13
68,16,4116.15384588,4119.74358947,4125.64102537,4105.76923050,4129.61538434,4118.71794844,4116.41025614,4046.66666625,4113.71794844,4125.51282024,4187.17948704,4092.56410222,4128.97435870,4079.35897402,238,13
76,16,4105.76923050,4100.64102530,4133.46153819,4065.89743548,4107.69230742,4136.15384595,4138.20512800,4078.07692273,4128.71794844,4133.33333306,4186.92307679,4166.92307672,4156.92307672,4088.33333299,227,13
79,16,4134.23076896,4123.71794844,4222.43589737,4106.66666639,4118.58974332,4129.23076896,4122.05128178,4064.23076882,4133.71794844,4151.92307672,4198.84615371,4209.48717942,4187.94871781,4110.76923050,225,13
80,16,4136.41025621,4120.76923050,4156.41025621,4088.84615350,4123.84615357,4133.71794844,4117.69230742,4069.99999966,4144.10256390,4155.76923056,4198.07692294,4190.38461525,4190.12820499,4117.94871767,227,13
87,16,4158.84615364,4138.07692287,4196.28205115,4104.87179460,4126.41025614,4138.46153826,4150.76923056,4106.79487152,4155.12820492,4167.17948697,4190.12820499,4219.35897429,4186.53846140,4136.15384595,225,13
88,16,4155.25641005,4131.41025614,4162.05128185,4099.48717914,4128.58974332,4150.76923056,4159.74358954,4108.84615357,4153.84615364,4169.87179474,4199.99999986,4145.38461518,4180.76923063,4132.17948691,227,13
95,16,4147.94871774,4127.43589716,4156.66666646,4086.41025607,4110.51282024,4142.43589723,4156.53846133,4113.97435870,4170.38461525,4159.48717928,4182.94871781,4162.43589723,4166.53846133,4122.69230742,225,13
96,16,4142.17948697,4123.20512793,4143.07692287,4082.05128171,4115.89743562,4146.28205108,4154.74358954,4106.15384588,4163.07692287,4156.53846133,4183.46153833,4171.92307679,4181.66666653,4118.97435870,227,13
103,16,4146.02564082,4101.02564068,4125.12820485,4028.46153798,4116.28205101,4149.99999980,4151.15384595,4079.35897402,4172.56410243,4194.87179474,4227.82051275,4172.69230756,4223.20512814,4130.25640998,225,13
104,16,4142.56410236,4099.48717914,4161.92307672,4029.99999952,4113.58974332,4147.94871774,4156.02564082,4088.71794837,4172.69230756,4197.43589730,4229.48717942,4193.71794858,4221.66666660,4127.17948691,227,13
112,16,4155.89743569,4124.87179460,4182.30769217,4061.15384574,4105.25640998,4147.94871774,4148.20512800,4066.53846113,4167.56410236,4196.53846140,4204.35897429,4230.89743583,4224.74358968,4150.89743569,227,13
115,16,4144.10256390,4116.28205101,4186.53846140,4054.99999959,4101.79487145,4138.46153826,4147.43589723,4065.51282010,4167.43589723,4175.89743576,4201.79487173,4189.10256397,4200.25641012,4132.94871767,225,13
116,16,4132.43589716,4110.25640998,4114.99999973,4044.99999959,4088.71794837,4146.28205108,4151.41025621,4063.97435856,4166.66666646,4180.76923063,4196.28205115,4167.43589723,4197.69230756,4121.41025614,227,13
124,16,4138.46153826,4121.66666639,4135.76923056,4073.84615350,4086.15384581,4165.89743569,4157.17948697,4040.64102523,4166.15384595,4162.94871774,4196.79487166,4157.82051262,4182.94871781,4123.20512793,227,13
1,16,4133.33333306,4112.05128178,4121.15384588,4073.20512786,4082.69230735,4150.51282031,4148.07692287,4025.76923029,4160.64102544,4161.15384595,4187.17948704,4141.92307672,4181.79487166,4117.30769203,228,13
2,16,4143.33333313,4121.28205101,4190.51282038,4085.89743555,4083.33333299,4150.64102544,4148.58974339,4023.07692259,4168.97435884,4169.10256397,4184.87179474,4192.94871781,4193.20512807,4129.10256383,133,13
8,16,4149.35897415,4117.56410229,4124.35897408,4076.92307658,4087.05128171,4148.07692287,4145.25641005,4008.71794824,4153.71794851,4152.43589723,4170.89743576,4152.17948697,4184.87179474,4128.84615357,128,13
13,16,4155.51282031,4117.94871767,4118.20512793,4078.07692273,4078.07692273,4151.66666646,4144.87179467,3999.10256355,4161.28205108,4162.17948697,4166.02564082,4162.05128185,4183.84615371,4123.07692280,65,13
14,16,4158.33333313,4134.35897408,4162.43589723,4097.05128171,4091.66666632,4154.23076903,4146.66666646,3996.66666611,4166.15384595,4169.23076910,4168.07692287,4209.87179481,4199.99999986,4137.05128185,88,4
21,16,3993.97435842,4127.30769203,4127.05128178,4101.92307658,4088.58974325,4149.35897415,4147.69230749,3999.10256355,4167.05128185,4170.64102551,4173.97435884,4142.05128185,4184.23076910,4124.61538434,0,0
22,16,4004.74358926,4141.41025621,4184.10256397,4119.10256383,4089.23076889,4143.20512800,4144.87179467,3994.74358919,4163.07692287,4169.74358961,4169.87179474,4199.10256397,4190.64102551,4133.07692280,0,0
30,16,4041.92307651,4128.07692280,4144.10256390,4090.64102530,4086.79487145,4131.28205101,4140.38461518,3993.33333278,4160.51282031,4168.46153833,4157.69230749,4187.30769217,4183.46153833,4130.64102537,0,0
33,16,4040.89743548,4141.15384595,4134.87179460,4140.12820492,4080.51282017,4137.05128185,4129.48717921,3983.33333278,4154.23076903,4160.51282031,4157.30769210,4158.07692287,4163.46153826,4112.43589716,0,0
34,16,4049.23076882,4138.97435877,4131.02564075,4126.41025614,4089.61538427,4136.79487159,4132.05128178,3988.97435842,4160.64102544,4169.74358961,4152.17948697,4176.28205115,4172.82051269,4115.64102537,0,0
42,16,4060.64102523,4139.61538441,4163.33333313,4133.71794844,4083.58974325,4133.97435870,4136.92307672,3980.76923022,4139.10256390,4148.58974339,4151.28205108,4160.38461518,4164.74358954,4116.79487152,0,0
47,16,4065.12820472,4143.58974339,4165.51282031,4136.79487159,4089.35897402,4123.97435870,4132.94871767,3973.84615329,4139.10256390,4142.94871774,4148.33333313,4155.89743569,4156.15384595,4105.38461511,0,0
48,16,4070.89743555,4147.05128185,4152.43589723,4133.71794844,4091.92307658,4125.38461511,4133.20512793,3977.94871740,4143.33333313,4144.87179467,4143.07692287,4154.23076903,4158.97435877,4108.20512793,0,0
56,16,4081.02564068,4138.58974339,4102.17948684,4131.28205101,4101.15384581,4137.94871774,4141.79487159,3966.53846092,4133.97435870,4138.97435877,4140.76923056,4107.30769203,4142.94871774,4100.89743555,0,0
61,16,4088.84615350,4133.71794844,4107.43589716,4128.07692280,4106.53846126,4130.76923050,4152.05128185,3988.71794817,4144.23076903,4145.12820492,4138.07692287,4119.23076896,4149.35897415,4104.74358947,0,0
62,16,4095.89743555,4137.05128185,4166.15384595,4142.17948697,4097.43589709,4124.23076896,4144.10256390,3986.15384560,4138.71794851,4146.41025621,4138.71794851,4144.23076903,4155.38461518,4110.25640998,0,0
63,16,4101.02564068,4139.48717928,4183.46153833,4141.02564082,4093.97435863,4127.94871767,4142.94871774,3980.76923022,4139.35897415,4148.84615364,4132.56410229,4164.48717928,4154.48717928,4114.23076896,0,0
73,16,4115.89743562,4154.74358954,4185.12820499,4160.25641005,4108.33333306,4130.38461511,4147.82051262,3987.56410201,4142.05128185,4146.28205108,4126.41025614,4170.25641012,4142.82051262,4112.17948691,255,13
74,16,4114.61538434,4144.61538441,4128.71794844,4147.17948697,4102.69230742,4138.84615364,4151.28205108,3989.35897381,4147.43589723,4150.64102544,4123.33333306,4136.15384595,4149.87179467,4111.79487152,81,4
81,16,4110.12820485,4137.30769210,4107.69230742,4142.17948697,4114.23076896,4126.28205101,4136.28205108,3987.56410201,4140.64102544,4148.71794851,4131.92307665,4134.23076896,4143.58974339,4105.64102537,70,13
82,16,4113.07692280,4138.33333313,4116.79487152,4144.99999980,4123.71794844,4124.10256383,4141.02564082,3990.12820458,4143.84615364,4146.53846133,4129.99999973,4116.53846126,4146.79487159,4107.43589716,81,4
85,16,4124.74358947,4156.53846133,4155.76923056,4150.89743569,4113.71794844,4121.66666639,4136.66666646,3995.12820458,4143.58974339,4136.28205108,4117.30769203,4179.48717935,4152.69230749,4114.35897408,70,13
94,16,4116.79487152,4133.46153819,4087.05128171,4121.28205101,4116.02564075,4125.51282024,4129.23076896,3996.53846099,4135.64102544,4118.97435870,4102.17948684,4107.05128178,4129.35897408,4088.46153812,81,4
97,16,4130.64102537,4176.79487166,4117.17948691,4205.38461532,4135.51282031,4124.87179460,4133.07692280,3987.56410201,4123.97435870,4104.99999973,4101.41025607,4094.87179453,4106.53846126,4091.66666632,70,13
98,16,4133.97435870,4192.94871781,4191.66666653,4242.05128206,4135.76923056,4108.97435870,4112.69230742,3973.20512765,4105.76923050,4091.41025607,4083.71794837,4153.71794851,4100.25640991,4089.99999966,81,4
107,16,4121.28205101,4168.97435884,4109.48717921,4198.71794858,4128.20512793,4114.99999973,4120.51282024,3987.69230714,4097.56410222,4081.28205094,4083.20512786,4072.82051248,4079.74358940,4075.76923043,225,13
108,16,4126.53846126,4178.84615371,4163.33333313,4208.07692301,4134.10256383,4107.56410229,4113.07692280,3989.48717894,4099.48717914,4084.35897402,4074.61538427,4128.33333306,4080.38461504,4079.48717914,229,13
115,16,4126.79487152,4176.28205115,4123.58974332,4193.33333320,4126.15384588,4142.94871774,4142.94871774,4018.97435849,4120.51282024,4096.66666632,4065.76923036,4120.12820485,4093.71794837,4075.38461504,225,13
116,16,4130.38461511,4179.35897422,4157.69230749,4200.25641012,4136.53846133,4137.69230749,4138.20512800,4024.23076875,4118.07692280,4092.82051248,4071.92307658,4136.02564082,4095.89743555,4083.33333299,229,13
118,16,4140.25641005,4178.84615371,4169.99999986,4205.64102558,4133.58974332,4126.66666639,4133.84615357,4032.94871747,4122.69230742,4104.10256383,4080.51282017,4130.12820485,4097.56410222,4088.33333299,81,4
121,16,4144.23076903,4169.48717935,4155.64102544,4191.15384602,4123.33333306,4133.58974332,4117.30769203,4028.71794824,4117.17948691,4098.07692273,4075.76923043,4141.53846133,4101.28205094,4092.05128171,70,13
3,16,4141.79487159,4174.61538448,4175.38461525,4206.02564096,4133.97435870,4137.30769210,4121.79487152,4070.76923043,4116.53846126,4102.30769196,4070.38461504,4153.58974339,4093.71794837,4086.15384581,249,13
4,16,4130.89743562,4159.87179467,4094.10256376,4182.30769217,4127.94871767,4138.97435877,4127.82051255,4076.41025607,4119.74358947,4103.58974332,4081.02564068,4079.10256376,4089.10256376,4075.51282017,246,13
6,16,4148.97435877,4178.07692294,4144.10256390,4198.71794858,4119.87179460,4138.97435877,4119.23076896,4064.10256369,4111.41025614,4101.41025607,4067.43589702,4117.43589716,4084.23076889,4090.76923043,27,13
15,16,4142.43589723,4169.10256397,4146.53846133,4187.56410243,4118.58974332,4136.53846133,4117.56410229,4098.33333299,4120.51282024,4113.58974332,4084.61538427,4116.15384588,4095.51282017,4097.94871761,0,14
16,16,4149.10256390,4177.17948704,4163.58974339,4193.58974345,4125.76923050,4143.33333313,4114.74358947,4098.20512786,4109.61538434,4104.23076896,4074.35897402,4127.82051255,4096.02564068,4098.33333299,0,0
23,16,4153.33333313,4171.41025628,4178.84615371,4172.30769217,4126.53846126,4147.94871774,4124.23076896,4132.43589716,4132.30769203,4127.56410229,4097.82051248,4194.74358961,4127.30769203,4106.28205101,0,0
24,16,4145.64102544,4155.76923056,4109.87179460,4142.69230749,4111.79487152,4153.71794851,4126.41025614,4132.82051255,4133.33333306,4125.51282024,4111.02564075,4141.02564082,4125.76923050,4101.79487145,0,0
27,16,4142.17948697,4141.41025621,4124.74358947,4122.30769203,4119.99999973,4147.56410236,4123.33333306,4153.58974339,4129.87179460,4131.28205101,4098.97435863,4127.30769203,4130.25640998,4092.43589709,0,0
36,16,4174.48717935,4172.56410243,4172.05128192,4162.43589723,4113.71794844,4139.61538441,4127.69230742,4165.38461518,4138.33333313,4157.05128185,4118.97435870,4187.05128192,4147.56410236,4118.84615357,0,0
39,16,4162.82051262,4137.05128185,4092.69230735,4114.87179460,4115.51282024,4138.58974339,4128.58974332,4170.76923063,4130.89743562,4132.69230742,4109.10256383,4127.17948691,4128.46153819,4107.43589716,0,0
40,16,4157.69230749,4153.58974339,4087.43589709,4154.23076903,4118.33333306,4140.89743569,4129.10256383,4165.76923056,4123.97435870,4128.84615357,4106.41025614,4106.66666639,4111.15384588,4097.82051248,0,0
48,16,4144.35897415,4156.02564082,4101.53846119,4169.87179474,4145.38461518,4134.61538434,4119.74358947,4146.15384595,4116.53846126,4113.97435870,4069.35897395,4119.74358947,4097.69230735,4078.71794837,0,0
51,16,4144.74358954,4158.20512800,4097.30769196,4173.84615371,4125.64102537,4129.48717921,4129.48717921,4159.10256390,4119.74358947,4120.76923050,4079.10256376,4116.15384588,4105.12820485,4079.48717914,0,0
52,16,4142.82051262,4148.20512800,4044.74358933,4157.94871774,4144.74358954,4137.05128185,4138.71794851,4163.71794851,4117.56410229,4113.07692280,4068.58974318,4076.41025607,4091.41025607,4069.35897395,0,0
61,16,4143.20512800,4159.87179467,4112.69230742,4172.94871781,4136.79487159,4142.56410236,4140.12820492,4171.28205115,4128.97435870,4117.82051255,4069.10256369,4122.94871767,4104.10256383,4079.10256376,0,0
62,16,4140.76923056,4152.30769210,4077.05128171,4161.28205108,4145.76923056,4149.87179467,4140.25641005,4171.92307679,4129.87179460,4119.35897408,4063.58974318,4099.48717914,4105.38461511,4078.33333299,0,0
69,16,4147.30769210,4148.20512800,4123.58974332,4154.99999980,4130.51282024,4135.12820485,4129.35897408,4171.92307679,4122.17948691,4118.84615357,4062.43589702,4134.35897408,4108.58974332,4090.89743555,124,12
70,16,4146.28205108,4137.43589723,4043.71794830,4135.64102544,4130.25640998,4147.82051262,4139.35897415,4172.05128192,4123.97435870,4117.43589716,4069.61538420,4075.64102530,4101.66666632,4084.61538427,28,13
77,16,4155.51282031,4153.58974339,4101.53846119,4163.58974339,4135.25640998,4131.41025614,4121.79487152,4173.97435884,4134.87179460,4134.23076896,4058.46153805,4109.61538434,4117.56410229,4093.58974325,71,13
78,16,4155.51282031,4146.66666646,4096.53846119,4153.33333313,4135.89743569,4124.87179460,4119.87179460,4171.28205115,4132.94871767,4120.51282024,4052.82051241,4109.10256383,4118.33333306,4088.46153812,88,4
82,16,4142.56410236,4141.53846133,4106.28205101,4144.23076903,4139.23076903,4120.64102537,4131.53846126,4160.12820492,4115.25640998,4107.43589716,4045.89743548,4096.41025607,4104.99999973,4077.17948684,88,4
91,16,4159.99999980,4160.51282031,4129.35897408,4158.07692287,4139.10256390,4116.66666639,4119.48717921,4158.07692287,4118.20512793,4120.38461511,4051.02564061,4116.15384588,4123.33333306,4093.46153812,251,13
92,16,4145.76923056,4152.05128185,4130.76923050,4147.43589723,4134.10256383,4110.25640998,4112.82051255,4150.25641005,4104.48717921,4104.23076896,4042.94871754,4113.97435870,4097.56410222,4075.64102530,228,13
94,16,4142.05128185,4145.25641005,4154.74358954,4149.48717928,4133.58974332,4107.43589716,4111.02564075,4139.10256390,4101.53846119,4099.23076889,4033.58974311,4133.71794844,4104.87179460,4072.30769196,88,4
103,16,4147.94871774,4126.02564075,4105.12820485,4111.92307665,4127.82051255,4118.07692280,4122.05128178,4146.92307672,4128.97435870,4123.97435870,4038.58974318,4082.17948684,4117.69230742,4085.76923043,251,13
104,16,4162.82051262,4144.23076903,4168.84615371,4143.33333313,4128.71794844,4116.15384588,4124.35897408,4145.76923056,4131.79487152,4125.64102537,4040.51282010,4157.69230749,4131.28205101,4103.20512793,228,13
106,16,4154.10256390,4160.76923056,4137.05128185,4181.53846140,4132.17948691,4127.43589716,4125.12820485,4134.48717921,4120.51282024,4121.02564075,4050.38461497,4122.05128178,4114.48717921,4089.10256376,88,4
109,16,4147.82051262,4165.76923056,4202.43589737,4197.30769217,4136.41025621,4120.76923050,4120.12820485,4120.25640998,4101.66666632,4105.25640998,4031.53846106,4165.89743569,4099.35897402,4081.28205094,71,13
119,16,4146.66666646,4150.64102544,4170.76923063,4169.87179474,4139.61538441,4127.05128178,4126.15384588,4108.84615357,4109.87179460,4111.02564075,4038.58974318,4134.35897408,4098.84615350,4078.84615350,251,13
120,16,4137.94871774,4143.97435877,4132.05128178,4162.94871774,4131.79487152,4131.28205101,4132.43589716,4105.64102537,4111.02564075,4109.23076896,4044.74358933,4111.53846126,4096.02564068,4074.61538427,228,13
121,16,4131.41025614,4137.30769210,4110.89743562,4156.02564082,4130.89743562,4131.92307665,4139.87179467,4106.79487152,4115.89743562,4113.71794844,4049.23076882,4090.76923043,4088.84615350,4070.25640991,71,13
2,16,4143.58974339,4139.10256390,4152.30769210,4147.43589723,4131.02564075,4125.12820485,4129.48717921,4090.12820478,4118.58974332,4117.30769203,4061.66666625,4134.35897408,4101.79487145,4081.66666632,107,13
7,16,4157.56410236,4154.87179467,4172.56410243,4158.71794851,4136.66666646,4114.99999973,4125.76923050,4073.97435863,4105.51282024,4117.17948691,4067.82051241,4145.25641005,4102.05128171,4093.46153812,185,10
8,16,4151.41025621,4148.07692287,4114.99999973,4152.94871774,4133.97435870,4121.53846126,4126.02564075,4076.92307658,4110.76923050,4117.05128178,4075.51282017,4097.69230735,4104.74358947,4090.89743555,128,13
15,16,4142.05128185,4143.07692287,4128.97435870,4159.61538441,4143.07692287,4121.41025614,4139.48717928,4092.56410222,4119.10256383,4124.48717921,4075.89743555,4112.94871767,4099.48717914,4070.76923043,230,13
16,16,4156.66666646,4153.46153826,4181.66666653,4169.48717935,4156.53846133,4120.89743562,4142.43589723,4091.41025607,4117.69230742,4123.97435870,4076.28205094,4140.51282031,4111.53846126,4082.94871761,0,0
87,16,4147.56410236,4121.15384588,4124.61538434,4106.15384588,4141.79487159,4116.79487152,4146.41025621,4308.71794886,4150.12820492,4164.74358954,4094.10256376,4132.94871767,4138.07692287,4094.48717914,244,13
88,16,4155.12820492,4125.12820485,4125.76923050,4113.33333306,4142.69230749,4119.74358947,4149.35897415,4315.00000014,4152.05128185,4167.30769210,4097.82051248,4151.66666646,4146.66666646,4098.46153812,222,13
36,16,4127.82051255,4140.64102544,4128.33333306,4163.07692287,4133.07692280,4110.12820485,4122.82051255,4465.12820562,4097.82051248,4118.97435870,3992.17948663,4093.46153812,4081.28205094,4069.10256369,0,0
45,16,4154.99999980,4164.74358954,4150.51282031,4158.58974339,4146.66666646,4109.87179460,4083.97435863,4542.17948781,4113.84615357,4148.97435877,4010.89743541,4115.25640998,4120.76923050,4097.43589709,0,0
46,16,4152.69230749,4158.97435877,4161.79487159,4154.23076903,4138.58974339,4115.38461511,4097.43589709,4552.17948781,4107.56410229,4143.20512800,4003.46153791,4134.48717921,4121.53846126,4097.94871761,0,0
53,16,4134.87179460,4147.43589723,4147.17948697,4144.10256390,4151.41025621,4152.05128185,4151.15384595,4675.76923168,4133.20512793,4145.25641005,4052.94871754,4149.74358954,4111.28205101,4087.05128171,0,0
54,16,4130.38461511,4138.20512800,4088.07692273,4128.07692280,4145.38461518,4145.64102544,4135.51282031,4673.58974450,4120.51282024,4142.69230749,4068.20512779,4095.76923043,4103.58974332,4086.66666632,0,0
57,16,4136.92307672,4136.28205108,4093.07692273,4127.69230742,4133.71794844,4139.99999980,4132.05128178,4722.17948816,4120.12820485,4139.35897415,4075.76923043,4096.79487145,4104.23076896,4086.53846119,0,0
66,16,4129.74358947,4150.89743569,4132.94871767,4161.02564082,4152.43589723,4133.20512793,4130.76923050,4869.23077055,4134.87179460,4146.92307672,4134.10256383,4112.56410229,4096.28205094,4078.07692273,142,13
71,16,4131.41025614,4153.20512800,4127.94871767,4158.07692287,4143.71794851,4133.84615357,4132.82051255,4920.89743729,4137.17948697,4139.61538441,4157.05128185,4109.87179460,4095.12820478,4075.25640991,224,10
72,16,4129.10256383,4146.28205108,4068.97435856,4143.07692287,4147.82051262,4142.82051262,4151.41025621,4933.71795018,4137.17948697,4131.15384588,4156.28205108,4074.23076889,4087.17948684,4069.10256369,126,13
78,16,4133.58974332,4144.87179467,4111.53846126,4141.92307672,4147.43589723,4153.46153826,4152.94871774,4931.41025787,4150.25641005,4138.33333313,4170.38461525,4116.79487152,4099.74358940,4073.33333299,105,4
81,16,4128.84615357,4141.66666646,4125.51282024,4149.48717928,4147.05128185,4142.69230749,4138.58974339,4889.74359107,4143.97435877,4144.23076903,4186.66666653,4124.61538434,4104.48717921,4082.82051248,72,13
82,16,4118.97435870,4129.23076896,4067.69230728,4133.97435870,4137.82051262,4146.15384595,4144.99999980,4872.94871927,4131.15384588,4132.05128178,4177.69230756,4076.15384581,4097.56410222,4071.15384581,105,4
89,16,4129.87179460,4141.28205108,4134.61538434,4140.12820492,4155.89743569,4139.23076903,4148.07692287,4764.61538573,4141.79487159,4140.25641005,4186.15384602,4142.69230749,4104.35897408,4088.84615350,72,13
90,16,4129.99999973,4133.20512793,4075.51282017,4127.69230742,4157.05128185,4148.71794851,4153.33333313,4747.17948823,4143.20512800,4144.48717928,4194.23076910,4076.66666632,4102.82051255,4084.61538427,105,4
93,16,4136.92307672,4139.10256390,4104.10256383,4130.64102537,4135.51282031,4134.61538434,4139.74358954,4697.43589841,4148.07692287,4156.92307672,4187.43589730,4126.66666639,4119.99999973,4093.58974325,72,13
102,16,4130.38461511,4148.20512800,4091.92307658,4152.17948697,4151.66666646,4126.66666639,4142.82051262,4571.28205198,4144.23076903,4139.35897415,4181.79487166,4106.92307665,4114.48717921,4077.17948684,105,4
105,16,4123.84615357,4130.25640998,4056.53846113,4132.56410229,4151.79487159,4124.48717921,4136.66666646,4528.58974415,4134.61538434,4135.12820485,4186.53846140,4079.87179453,4104.99999973,4075.89743555,72,13
106,16,4130.12820485,4138.71794851,4107.30769203,4144.99999980,4147.56410236,4122.05128178,4133.20512793,4504.61538518,4136.02564082,4134.74358947,4180.64102551,4122.05128178,4112.94871767,4086.28205094,105,4
115,16,4119.48717921,4126.41025614,4059.87179446,4124.10256383,4145.25641005,4128.20512793,4138.46153826,4364.23076944,4130.76923050,4123.07692280,4176.92307679,4087.17948684,4111.79487152,4086.02564068,218,13
116,16,4130.76923050,4144.74358954,4110.51282024,4140.64102544,4151.53846133,4131.41025614,4138.07692287,4347.43589765,4134.10256383,4130.51282024,4174.35897422,4120.76923050,4118.20512793,4089.48717914,233,13
123,16,4121.28205101,4126.79487152,4089.74358940,4115.51282024,4126.66666639,4124.23076896,4127.05128178,4256.79487180,4126.15384588,4124.23076896,4163.58974339,4083.84615350,4107.17948691,4087.05128171,218,13
124,16,4128.07692280,4141.53846133,4157.17948697,4140.89743569,4137.56410236,4120.51282024,4127.43589716,4248.46153847,4126.53846126,4128.46153819,4176.15384602,4166.41025621,4127.94871767,4101.79487145,233,13
3,16,4120.64102537,4128.97435870,4096.92307658,4128.46153819,4147.82051262,4132.56410229,4136.79487159,4198.97435884,4136.41025621,4139.87179467,4194.35897422,4108.71794844,4128.33333306,4096.92307658,180,14
4,16,4130.38461511,4143.97435877,4152.56410236,4138.33333313,4139.48717928,4131.41025614,4141.92307672,4194.35897422,4141.92307672,4152.82051262,4198.97435884,4147.17948697,4141.79487159,4110.64102537,239,13
8,16,4119.61538434,4135.76923056,4082.69230735,4125.12820485,4158.71794851,4137.94871774,4141.02564082,4166.66666646,4135.38461518,4137.56410236,4206.92307686,4106.02564075,4130.64102537,4098.84615350,124,13
15,16,4134.35897408,4140.25641005,4112.82051255,4125.38461511,4130.12820485,4143.97435877,4132.17948691,4119.10256383,4140.12820492,4136.66666646,4219.48717942,4098.07692273,4134.99999973,4109.74358947,217,13
16,16,4139.10256390,4147.56410236,4154.87179467,4133.33333306,4140.89743569,4140.64102544,4133.20512793,4109.74358947,4134.74358947,4133.46153819,4217.82051275,4151.41025621,4138.46153826,4113.20512793,0,0
20,16,4139.35897415,4143.97435877,4103.97435870,4128.33333306,4145.25641005,4151.15384595,4149.23076903,4102.05128171,4144.48717928,4141.41025621,4221.28205122,4099.99999966,4132.94871767,4108.84615357,0,0
23,16,4119.99999973,4122.43589716,4061.02564061,4110.76923050,4140.76923056,4147.30769210,4143.84615364,4076.28205094,4128.58974332,4134.61538434,4218.97435891,4104.23076896,4126.53846126,4101.15384581,0,0
32,16,4120.38461511,4124.87179460,4128.20512793,4117.94871767,4131.15384588,4129.61538434,4131.28205101,4066.79487138,4120.64102537,4118.20512793,4198.84615371,4134.48717921,4122.43589716,4088.84615350,0,0
37,16,4131.66666639,4131.41025614,4099.74358940,4118.07692280,4127.30769203,4130.51282024,4125.89743562,4080.51282017,4127.30769203,4127.05128178,4186.92307679,4154.23076903,4130.89743562,4103.33333306,0,0
38,16,4122.17948691,4116.66666639,4016.79487131,4100.25640991,4118.84615357,4127.69230742,4118.97435870,4081.15384581,4117.17948691,4115.25640998,4185.76923063,4100.76923043,4119.48717921,4095.12820478,0,0
45,16,4132.43589716,4124.61538434,4072.05128171,4103.33333306,4130.12820485,4137.17948697,4115.51282024,4121.15384588,4122.94871767,4123.33333306,4184.87179474,4119.99999973,4133.46153819,4107.82051255,0,0
46,16,4133.33333306,4122.82051255,4093.97435863,4102.30769196,4139.48717928,4142.56410236,4131.28205101,4139.87179467,4132.30769203,4125.51282024,4177.30769217,4124.23076896,4133.33333306,4106.66666639,0,0
54,16,4140.51282031,4132.30769203,4096.15384581,4115.38461511,4133.71794844,4132.30769203,4128.84615357,4201.53846147,4138.97435877,4139.61538441,4136.15384595,4174.61538448,4157.30769210,4125.12820485,0,0
57,16,4138.07692287,4128.07692280,4118.58974332,4110.38461511,4130.76923050,4122.17948691,4125.38461511,4193.07692294,4137.17948697,4135.38461518,4116.66666639,4162.56410236,4141.79487159,4107.69230742,0,0
58,16,4132.43589716,4126.15384588,4042.17948677,4098.84615350,4129.99999973,4133.71794844,4136.53846133,4206.41025634,4148.33333313,4143.20512800,4122.17948691,4127.69230742,4143.46153826,4109.99999973,0,0
65,16,4141.02564082,4129.48717921,4092.17948684,4116.15384588,4136.02564082,4135.38461518,4134.35897408,4195.25641012,4139.74358954,4139.35897415,4105.76923050,4143.33333313,4150.51282031,4115.76923050,245,13
66,16,4141.92307672,4126.92307665,4069.23076882,4107.56410229,4130.89743562,4139.35897415,4136.66666646,4197.05128192,4139.35897415,4134.48717921,4092.69230735,4103.07692280,4143.97435877,4112.17948691,169,13
68,16,4140.12820492,4115.76923050,4026.53846106,4090.51282017,4133.58974332,4136.79487159,4141.02564082,4185.12820499,4141.02564082,4134.99999973,4099.74358940,4128.84615357,4143.46153826,4111.92307665,241,13
72,16,4154.74358954,4119.99999973,4154.99999980,4078.97435863,4129.23076896,4145.12820492,4140.25641005,4166.41025621,4150.25641005,4153.71794851,4135.25640998,4231.28205122,4191.28205115,4134.10256383,126,13
80,16,4154.74358954,4111.66666639,4088.46153812,4071.28205094,4136.79487159,4149.99999980,4151.79487159,4141.15384595,4165.89743569,4173.84615371,4141.28205108,4203.84615378,4196.41025628,4143.84615364,16,13
83,16,4153.84615364,4119.99999973,4065.38461497,4069.48717907,4136.15384595,4147.43589723,4146.41025621,4113.97435870,4159.10256390,4156.41025621,4140.64102544,4189.35897422,4192.43589730,4131.79487152,227,13
